LabVIEW Measurement	
Writer_Version	2
Reader_Version	2
Separator	Tab
Decimal_Separator	.
Multi_Headings	Yes
X_Columns	No
Time_Pref	Absolute
Operator	jerem
Date	2023/02/02
Time	11:36:17.611527930034937214
***End_of_Header***	
	
Channels	2		
Samples	6806	6806	
Date	2023/02/02	2023/02/02	
Time	11:36:17.611527930034937214	11:36:17.6115404297808724156	
Y_Unit_Label	Volts	Volts	
X_Dimension	Time	Time	
X0	0.0000000000000000E+0	0.0000000000000000E+0	
Delta_X	0.001000	0.001000	
***End_of_Header***			
X_Value	Voltage_0	Voltage_1	Comment
	2.496046	2.507565
	2.497646	2.508205
	2.500526	2.508205
	2.501166	2.505966
	2.503726	2.505006
	2.505326	2.502446
	2.508205	2.498926
	2.508205	2.496046
	2.509805	2.492847
	2.511085	2.491567
	2.511725	2.489007
	2.514605	2.486447
	2.515565	2.484207
	2.519085	2.483887
	2.520685	2.483567
	2.523884	2.482927
	2.524524	2.482927
	2.528044	2.484527
	2.528044	2.485487
	2.528684	2.487087
	2.528364	2.489647
	2.526444	2.493167
	2.522604	2.496366
	2.518445	2.500206
	2.513645	2.507246
	2.504366	2.512685
	2.497006	2.521644
	2.489327	2.531884
	2.480687	2.542443
	2.475888	2.553962
	2.470128	2.565481
	2.464689	2.576360
	2.463409	2.585000
	2.464369	2.593639
	2.466608	2.599079
	2.471408	2.599399
	2.477808	2.597799
	2.488367	2.593319
	2.498926	2.585640
	2.509165	2.577000
	2.522284	2.564841
	2.536683	2.553642
	2.550122	2.542123
	2.563241	2.529324
	2.570281	2.517485
	2.581160	2.508845
	2.586600	2.500846
	2.589480	2.495406
	2.587880	2.490287
	2.585640	2.486767
	2.580200	2.483567
	2.573161	2.483247
	2.566761	2.482927
	2.558442	2.482607
	2.553642	2.483247
	2.547883	2.485487
	2.541803	2.486767
	2.537643	2.489007
	2.534444	2.489967
	2.532524	2.490607
	2.528364	2.489327
	2.524204	2.487727
	2.518765	2.485807
	2.514605	2.482607
	2.506926	2.478768
	2.499246	2.474608
	2.491567	2.471728
	2.483887	2.471408
	2.477808	2.471088
	2.473008	2.474288
	2.468528	2.477808
	2.465968	2.483567
	2.464689	2.488687
	2.463729	2.494446
	2.463729	2.498606
	2.463409	2.500206
	2.463729	2.501166
	2.462129	2.497966
	2.462449	2.494446
	2.462129	2.488687
	2.460849	2.482607
	2.461169	2.476528
	2.461489	2.471728
	2.462449	2.468528
	2.467568	2.467248
	2.473968	2.467888
	2.481967	2.469808
	2.489967	2.472688
	2.497326	2.477168
	2.505966	2.480047
	2.513645	2.481327
	2.521005	2.480367
	2.526764	2.478128
	2.529324	2.472688
	2.532524	2.465649
	2.533164	2.459569
	2.530924	2.450930
	2.526764	2.447090
	2.523564	2.444850
	2.516525	2.449010
	2.510125	2.459249
	2.502766	2.473328
	2.494446	2.494446
	2.489967	2.518445
	2.485167	2.544043
	2.480047	2.570281
	2.477808	2.591719
	2.476848	2.608038
	2.477168	2.615398
	2.481007	2.616678
	2.482927	2.609638
	2.484527	2.595559
	2.487087	2.578920
	2.486767	2.560042
	2.486127	2.543723
	2.485807	2.533484
	2.483567	2.531244
	2.482607	2.539883
	2.480687	2.556842
	2.481327	2.581800
	2.481967	2.612838
	2.487727	2.645795
	2.490927	2.673633
	2.498606	2.695392
	2.506606	2.707231
	2.512365	2.710751
	2.515565	2.699872
	2.517485	2.682273
	2.515885	2.658915
	2.511725	2.629797
	2.506926	2.610918
	2.499246	2.586920
	2.496366	2.567081
	2.491887	2.555242
	2.490927	2.549482
	2.494126	2.550762
	2.502126	2.555882
	2.509165	2.561962
	2.521964	2.569001
	2.534444	2.572841
	2.545643	2.571881
	2.552682	2.564521
	2.556202	2.554922
	2.556842	2.542443
	2.552682	2.530924
	2.545963	2.522924
	2.536043	2.519085
	2.530284	2.523244
	2.522284	2.535403
	2.516525	2.552682
	2.513005	2.574761
	2.513645	2.597479
	2.514285	2.619237
	2.517165	2.635236
	2.519725	2.644836
	2.520685	2.647075
	2.521964	2.639716
	2.519725	2.625957
	2.515565	2.605798
	2.511405	2.582440
	2.504686	2.557802
	2.499566	2.534764
	2.497646	2.516525
	2.495086	2.501166
	2.493487	2.492207
	2.493487	2.483887
	2.495406	2.481967
	2.496686	2.480687
	2.498286	2.481007
	2.498926	2.480047
	2.498286	2.478768
	2.496686	2.475248
	2.493487	2.471408
	2.489327	2.467568
	2.482927	2.462449
	2.477808	2.458609
	2.471728	2.455729
	2.468848	2.453809
	2.464689	2.453489
	2.462769	2.455409
	2.462769	2.457329
	2.463729	2.460209
	2.465009	2.461169
	2.469488	2.463409
	2.473328	2.463089
	2.478448	2.462769
	2.481007	2.459249
	2.485167	2.457969
	2.489327	2.454769
	2.492207	2.450610
	2.493167	2.449650
	2.495086	2.448690
	2.495726	2.447730
	2.497326	2.451250
	2.496686	2.455089
	2.497006	2.460849
	2.496686	2.469488
	2.496686	2.477488
	2.496366	2.483567
	2.495086	2.491887
	2.494126	2.498286
	2.492847	2.506606
	2.488367	2.513645
	2.484847	2.519405
	2.481647	2.523564
	2.477168	2.528364
	2.473648	2.530924
	2.472048	2.534124
	2.467568	2.537963
	2.466928	2.539883
	2.468528	2.543723
	2.468528	2.546283
	2.471728	2.549802
	2.476848	2.551722
	2.482607	2.554282
	2.487407	2.555882
	2.492847	2.556202
	2.497646	2.555242
	2.501806	2.552682
	2.505326	2.551402
	2.507246	2.548523
	2.508205	2.545643
	2.509165	2.543403
	2.509485	2.540843
	2.509485	2.538603
	2.509805	2.535723
	2.510765	2.532204
	2.513965	2.529644
	2.517485	2.526764
	2.521964	2.522924
	2.527084	2.521644
	2.529004	2.519405
	2.533804	2.516845
	2.537003	2.514605
	2.539563	2.513965
	2.543083	2.513005
	2.542763	2.511405
	2.542443	2.511085
	2.542443	2.510125
	2.541803	2.509485
	2.540523	2.509165
	2.541163	2.507885
	2.540523	2.507885
	2.540203	2.507246
	2.540523	2.508205
	2.539563	2.510765
	2.539563	2.514605
	2.538283	2.517165
	2.536043	2.521644
	2.533804	2.574441
	2.530284	2.527404
	2.527084	2.529644
	2.521644	2.614438
	2.516845	2.528364
	2.512685	2.524844
	2.510445	2.522604
	2.505646	2.517805
	2.503086	2.521644
	2.499246	2.533484
	2.496366	2.504046
	2.493806	2.523884
	2.489967	2.497966
	2.487087	2.496366
	2.485167	2.494126
	2.484207	2.491247
	2.483567	2.487727
	2.481647	2.510765
	2.481647	2.503406
	2.481647	2.565801
	2.480367	2.508845
	2.480367	2.463089
	2.478448	2.460529
	2.476528	2.501486
	2.474608	2.460529
	2.471088	2.456049
	2.468848	2.467568
	2.467568	2.574441
	2.466608	2.469168
	2.466608	2.463409
	2.467568	2.510125
	2.469488	2.474288
	2.473328	2.479408
	2.477808	2.481327
	2.482607	2.497326
	2.489007	2.496366
	2.491567	2.476528
	2.497646	2.475568
	2.501806	2.475568
	2.505006	2.472048
	2.506286	2.473008
	2.507246	2.473648
	2.506606	2.534764
	2.506606	2.495726
	2.506286	2.621797
	2.503406	2.497006
	2.503086	2.514925
	2.501166	2.513005
	2.500526	2.547243
	2.498606	2.543723
	2.497006	2.541803
	2.495726	2.540843
	2.492527	2.544363
	2.489967	2.544683
	2.487087	2.553322
	2.484847	2.545963
	2.482287	2.550762
	2.479408	2.555242
	2.478448	2.540843
	2.476208	2.541483
	2.476848	2.544683
	2.478128	2.547243
	2.481327	2.553322
	2.484847	2.556522
	2.489647	2.562921
	2.493167	2.567401
	2.498606	2.554602
	2.504686	2.552042
	2.511725	2.545963
	2.515565	2.542443
	2.518445	2.533804
	2.521324	2.535723
	2.523244	2.591079
	2.524204	2.511725
	2.523564	2.509805
	2.522284	2.511405
	2.521005	2.514605
	2.520365	2.522284
	2.520365	2.546603
	2.518765	2.556522
	2.520045	2.535083
	2.520045	2.537003
	2.521644	2.535403
	2.522604	2.533804
	2.523564	2.539243
	2.523244	2.552362
	2.523564	2.517485
	2.522284	2.512365
	2.518125	2.509805
	2.514285	2.509165
	2.511725	2.512685
	2.505646	2.516525
	2.499886	2.521324
	2.494766	2.526764
	2.490287	2.531884
	2.490607	2.536363
	2.489327	2.538283
	2.490287	2.538923
	2.491247	2.602279
	2.494766	2.524844
	2.496366	2.517485
	2.498286	2.510765
	2.500846	2.504046
	2.500206	2.499246
	2.498926	2.498606
	2.497646	2.555562
	2.495406	2.494446
	2.494126	2.496686
	2.494766	2.498606
	2.496686	2.498926
	2.499246	2.500846
	2.504046	2.548523
	2.510765	2.489647
	2.516845	2.485807
	2.521644	2.482927
	2.523564	2.481327
	2.523244	2.483887
	2.519085	2.491887
	2.513005	2.489007
	2.504686	2.497966
	2.498926	2.507885
	2.488687	2.518125
	2.479728	2.526124
	2.473968	2.542763
	2.471088	2.618277
	2.472368	2.531884
	2.476528	2.527084
	2.481007	2.519725
	2.487087	2.510765
	2.492207	2.507246
	2.494126	2.522284
	2.495086	2.489327
	2.494446	2.485167
	2.491247	2.482927
	2.487727	2.482607
	2.484527	2.488047
	2.480687	2.503406
	2.479408	2.477488
	2.479408	2.475248
	2.483247	2.472368
	2.487407	2.471088
	2.493487	2.473008
	2.502766	2.474288
	2.503726	2.476848
	2.504686	2.483247
	2.504046	2.490287
	2.499886	2.499886
	2.565161	2.513005
	2.551082	2.640036
	2.481327	2.514285
	2.475888	2.515245
	2.472688	2.513965
	2.472688	2.511085
	2.477488	2.512365
	2.620197	2.550122
	2.488687	2.505006
	2.499246	2.505326
	2.509805	2.507565
	2.543083	2.515565
	2.536043	2.540523
	2.670754	2.518765
	2.528364	2.521644
	2.526764	2.521964
	2.537643	2.519725
	2.554282	2.516205
	2.527404	2.516845
	2.627557	2.500526
	2.520365	2.495406
	2.521644	2.491887
	2.531244	2.491247
	2.528044	2.501806
	2.555882	2.636836
	2.522924	2.504686
	2.528364	2.513005
	2.551082	2.518445
	2.527724	2.522924
	2.519405	2.547243
	2.630117	2.521644
	2.508525	2.518125
	2.513965	2.512685
	2.511405	2.507246
	2.515565	2.510445
	2.508525	2.500206
	2.523884	2.492847
	2.511405	2.492847
	2.511085	2.495086
	2.513965	2.498606
	2.518765	2.519085
	2.543083	2.550442
	2.512685	2.506286
	2.511725	2.508205
	2.511725	2.509805
	2.512685	2.512685
	2.538923	2.556202
	2.506926	2.509485
	2.507246	2.510445
	2.503086	2.513005
	2.502126	2.518125
	2.504366	2.519405
	2.524524	2.582760
	2.497966	2.526444
	2.497326	2.529324
	2.497326	2.533164
	2.506606	2.561642
	2.519725	2.527404
	2.497966	2.524204
	2.499566	2.518445
	2.499886	2.514925
	2.501806	2.548203
	2.504366	2.508525
	2.501806	2.506926
	2.504046	2.506606
	2.505646	2.509805
	2.507246	2.519085
	2.513325	2.531884
	2.505966	2.516525
	2.505326	2.517485
	2.504046	2.517485
	2.508845	2.518125
	2.506286	2.599719
	2.497326	2.512365
	2.493487	2.508525
	2.491887	2.504686
	2.491567	2.508525
	2.489967	2.586920
	2.543083	2.624997
	2.491887	2.503726
	2.493487	2.505646
	2.496046	2.511085
	2.502446	2.524524
	2.529324	2.545963
	2.503726	2.521644
	2.507246	2.544363
	2.509485	2.538923
	2.512365	2.516845
	2.530924	2.524844
	2.511725	2.516525
	2.511405	2.511725
	2.511405	2.529324
	2.509485	2.516845
	2.535403	2.521324
	2.501806	2.544363
	2.499886	2.515565
	2.496046	2.526444
	2.497326	2.538283
	2.495726	2.545643
	2.493487	2.598119
	2.493487	2.550122
	2.493806	2.533804
	2.497006	2.537643
	2.613478	2.529004
	2.493487	2.519725
	2.494126	2.513965
	2.495086	2.507246
	2.497646	2.502126
	2.496686	2.500846
	2.497966	2.493167
	2.501806	2.497326
	2.503726	2.493487
	2.512685	2.494766
	2.505646	2.500206
	2.506286	2.502446
	2.507246	2.496046
	2.506286	2.502126
	2.511085	2.510765
	2.504366	2.499886
	2.502446	2.504686
	2.500206	2.497966
	2.500846	2.503086
	2.510765	2.502446
	2.496366	2.505006
	2.495726	2.508205
	2.495086	2.513645
	2.496686	2.517485
	2.494126	2.519405
	2.497006	2.527404
	2.497326	2.522924
	2.499886	2.523244
	2.507246	2.522284
	2.500206	2.519725
	2.503726	2.514605
	2.504686	2.513005
	2.505326	2.509165
	2.521644	2.507885
	2.505326	2.505966
	2.506926	2.503406
	2.506606	2.505326
	2.511405	2.504686
	2.593319	2.504046
	2.507885	2.504366
	2.507565	2.504366
	2.506606	2.503406
	2.510445	2.499886
	2.504686	2.499246
	2.502446	2.496686
	2.502446	2.494126
	2.503406	2.494446
	2.581160	2.491567
	2.500846	2.491887
	2.500526	2.491567
	2.501166	2.494446
	2.504366	2.496686
	2.499886	2.498926
	2.500206	2.498606
	2.498926	2.500206
	2.501486	2.501166
	2.576680	2.497966
	2.501166	2.496686
	2.502126	2.494766
	2.503086	2.492847
	2.510125	2.492207
	2.507246	2.491567
	2.508205	2.493487
	2.509805	2.495406
	2.510445	2.499246
	2.621797	2.502126
	2.509165	2.506606
	2.507565	2.512045
	2.506606	2.519085
	2.513325	2.519405
	2.499566	2.521644
	2.498286	2.520685
	2.496366	2.520365
	2.495086	2.518125
	2.491887	2.515885
	2.489967	2.511725
	2.489327	2.508525
	2.490927	2.505326
	2.578920	2.501806
	2.491567	2.500206
	2.493806	2.498606
	2.495406	2.497006
	2.510445	2.497966
	2.500526	2.497006
	2.503726	2.496366
	2.507246	2.495726
	2.514285	2.494126
	2.512045	2.493167
	2.513005	2.492847
	2.513645	2.492847
	2.509165	2.494446
	2.564521	2.496686
	2.500526	2.498926
	2.494126	2.503086
	2.487087	2.507565
	2.488367	2.513645
	2.474928	2.518765
	2.471728	2.524844
	2.469168	2.529004
	2.475888	2.531244
	2.466928	2.533164
	2.468848	2.533164
	2.471088	2.532204
	2.478448	2.530924
	2.476528	2.527084
	2.478768	2.523884
	2.480047	2.519405
	2.486767	2.513005
	2.481647	2.507246
	2.481967	2.503086
	2.482927	2.498286
	2.485167	2.491247
	2.486127	2.487407
	2.490927	2.482927
	2.494126	2.480047
	2.499886	2.478128
	2.528364	2.478128
	2.507246	2.477808
	2.511085	2.479408
	2.515885	2.482927
	2.526444	2.485487
	2.517165	2.488047
	2.515885	2.490927
	2.515245	2.493806
	2.535403	2.495406
	2.506926	2.496686
	2.504366	2.496686
	2.501486	2.497006
	2.505646	2.496046
	2.499246	2.495406
	2.498286	2.497006
	2.498926	2.499246
	2.542123	2.503726
	2.501486	2.507885
	2.502766	2.515885
	2.504366	2.523244
	2.519725	2.531564
	2.505006	2.538923
	2.504046	2.544363
	2.503406	2.547563
	2.631077	2.548203
	2.502446	2.546603
	2.501486	2.542443
	2.502126	2.534124
	2.562601	2.524204
	2.505966	2.515565
	2.508845	2.506286
	2.513325	2.498606
	2.551722	2.493487
	2.521964	2.491567
	2.527084	2.491247
	2.529644	2.492847
	2.554282	2.495406
	2.537003	2.498926
	2.539563	2.502446
	2.540523	2.506286
	2.568041	2.507246
	2.536683	2.506286
	2.533164	2.504686
	2.528044	2.501486
	2.607078	2.497966
	2.517485	2.495726
	2.509485	2.493806
	2.500846	2.494446
	2.626597	2.497966
	2.484847	2.505646
	2.481967	2.514605
	2.478448	2.523884
	2.521644	2.535083
	2.475888	2.543723
	2.476208	2.550442
	2.479088	2.554602
	2.482607	2.554922
	2.483247	2.550122
	2.486127	2.542763
	2.498606	2.532204
	2.492527	2.520045
	2.493167	2.508205
	2.495406	2.501486
	2.513005	2.492847
	2.500846	2.487407
	2.499566	2.484527
	2.503726	2.486447
	2.657635	2.491247
	2.509485	2.497326
	2.511085	2.505006
	2.515885	2.513325
	2.516525	2.520045
	2.518125	2.524844
	2.520045	2.529644
	2.529004	2.533484
	2.541163	2.532204
	2.517165	2.529324
	2.514925	2.525164
	2.518765	2.521324
	2.509805	2.515245
	2.504366	2.511085
	2.503406	2.506926
	2.522284	2.503726
	2.498606	2.502126
	2.497006	2.503406
	2.509805	2.505646
	2.512045	2.509165
	2.522604	2.513325
	2.507246	2.517165
	2.520045	2.520685
	2.510125	2.523564
	2.537323	2.522924
	2.510445	2.519405
	2.516845	2.513965
	2.554282	2.504686
	2.499886	2.495726
	2.500526	2.488047
	2.513325	2.481007
	2.509805	2.478448
	2.494766	2.477168
	2.497326	2.479728
	2.497326	2.486447
	2.516205	2.494766
	2.492527	2.505006
	2.512685	2.514925
	2.497966	2.523884
	2.503726	2.530284
	2.500846	2.531564
	2.522924	2.529964
	2.557802	2.524524
	2.493487	2.516205
	2.501486	2.507246
	2.487727	2.497646
	2.484207	2.491247
	2.483247	2.488047
	2.484847	2.489327
	2.486127	2.493487
	2.482927	2.503726
	2.488047	2.513965
	2.491567	2.524524
	2.489007	2.532524
	2.496046	2.538283
	2.503726	2.539243
	2.503086	2.534764
	2.500526	2.527084
	2.503086	2.515245
	2.501486	2.503086
	2.499566	2.490287
	2.500206	2.481007
	2.496046	2.476528
	2.496046	2.474288
	2.495086	2.475888
	2.499246	2.483247
	2.498286	2.492207
	2.500206	2.504366
	2.505966	2.515245
	2.511725	2.523884
	2.513005	2.528684
	2.511085	2.530284
	2.517165	2.528684
	2.515245	2.521964
	2.513005	2.513965
	2.511405	2.505646
	2.506926	2.497966
	2.504686	2.493806
	2.499246	2.492847
	2.496686	2.494126
	2.499566	2.499566
	2.494126	2.507885
	2.497006	2.515565
	2.499566	2.523884
	2.501166	2.529324
	2.504366	2.532524
	2.506926	2.533164
	2.507885	2.529644
	2.507885	2.524204
	2.508525	2.516845
	2.504686	2.510125
	2.504046	2.504046
	2.501806	2.498286
	2.499566	2.494766
	2.497006	2.494446
	2.496366	2.496366
	2.497006	2.498606
	2.501166	2.499886
	2.503086	2.502126
	2.508205	2.503086
	2.512045	2.501806
	2.514605	2.500526
	2.514605	2.498286
	2.518765	2.494126
	2.520365	2.492527
	2.520045	2.490287
	2.520045	2.488367
	2.518445	2.488367
	2.514285	2.489327
	2.512365	2.491887
	2.511725	2.494766
	2.508525	2.497326
	2.508205	2.500206
	2.508205	2.504046
	2.508525	2.505006
	2.508205	2.507885
	2.507885	2.510125
	2.507885	2.511405
	2.505006	2.513005
	2.502126	2.516205
	2.498926	2.516845
	2.496686	2.518445
	2.492207	2.520365
	2.489327	2.519725
	2.485807	2.518445
	2.485487	2.517805
	2.484527	2.517165
	2.485167	2.513325
	2.487407	2.510125
	2.490927	2.516205
	2.494126	2.504046
	2.497006	2.503086
	2.499566	2.501166
	2.502126	2.563241
	2.504046	2.496366
	2.505326	2.497646
	2.505326	2.507246
	2.504366	2.496046
	2.506926	2.494446
	2.505006	2.499566
	2.506286	2.491247
	2.506286	2.491247
	2.506606	2.493167
	2.505966	2.494446
	2.505966	2.497006
	2.505326	2.500846
	2.506286	2.558122
	2.504686	2.508525
	2.504686	2.565161
	2.504366	2.521324
	2.503406	2.516525
	2.501166	2.552682
	2.500206	2.581480
	2.499886	2.513965
	2.498606	2.525804
	2.497326	2.517485
	2.494446	2.513325
	2.494766	2.516205
	2.495726	2.526124
	2.496366	2.522924
	2.498286	2.529964
	2.498926	2.533804
	2.502126	2.538603
	2.505006	2.537963
	2.505966	2.548523
	2.506606	2.537963
	2.505326	2.578600
	2.504366	2.522604
	2.502766	2.530284
	2.501166	2.543403
	2.500206	2.513325
	2.500526	2.512045
	2.502766	2.533484
	2.504366	2.515245
	2.507246	2.518765
	2.509165	2.538603
	2.510765	2.523244
	2.510445	2.524844
	2.509165	2.532844
	2.505646	2.514925
	2.503086	2.510445
	2.498606	2.503086
	2.493167	2.494446
	2.490607	2.489967
	2.492527	2.526124
	2.491567	2.487727
	2.493487	2.489647
	2.497006	2.566761
	2.502446	2.497006
	2.504686	2.500526
	2.507885	2.522284
	2.509805	2.500206
	2.508845	2.497006
	2.507246	2.547563
	2.504366	2.487727
	2.498926	2.483887
	2.494766	2.494446
	2.492847	2.485167
	2.490287	2.491567
	2.490287	2.506286
	2.491567	2.516205
	2.492847	2.529644
	2.494766	2.551722
	2.496686	2.553642
	2.496366	2.559082
	2.494126	2.562601
	2.493167	2.554282
	2.489007	2.544363
	2.485807	2.539243
	2.483567	2.525484
	2.482607	2.516845
	2.484207	2.514605
	2.487727	2.509805
	2.492847	2.509805
	2.496046	2.518765
	2.503406	2.516205
	2.507885	2.517485
	2.512365	2.525484
	2.515565	2.516525
	2.515245	2.512365
	2.514605	2.510445
	2.510765	2.500206
	2.508205	2.494126
	2.504046	2.495406
	2.502766	2.488367
	2.501166	2.488687
	2.501166	2.536683
	2.502126	2.497646
	2.503406	2.509165
	2.503726	2.573801
	2.506606	2.514285
	2.505646	2.523244
	2.504366	2.519725
	2.504046	2.519085
	2.502446	2.518765
	2.502446	2.513005
	2.502766	2.509805
	2.502766	2.508205
	2.504366	2.505326
	2.505646	2.503726
	2.506286	2.506286
	2.508525	2.509165
	2.508525	2.513645
	2.508205	2.519725
	2.507246	2.522284
	2.505326	2.526444
	2.503726	2.530284
	2.499566	2.528364
	2.500526	2.546603
	2.500526	2.528364
	2.499566	2.521005
	2.499886	2.517805
	2.500526	2.515565
	2.500526	2.511725
	2.501166	2.511725
	2.500206	2.518445
	2.497326	2.512685
	2.496686	2.513325
	2.495086	2.514285
	2.493167	2.515565
	2.491887	2.513325
	2.491887	2.512365
	2.493167	2.511725
	2.494126	2.507246
	2.496366	2.504366
	2.497966	2.503726
	2.500206	2.500846
	2.501166	2.498606
	2.501486	2.499566
	2.501806	2.502766
	2.500206	2.502766
	2.499566	2.504686
	2.498926	2.528364
	2.496046	2.509485
	2.495406	2.510765
	2.496046	2.509805
	2.495726	2.508845
	2.497006	2.507246
	2.497326	2.505646
	2.497646	2.505326
	2.499246	2.503726
	2.500526	2.504046
	2.499886	2.504046
	2.499566	2.506926
	2.500846	2.505646
	2.500846	2.508525
	2.500846	2.524204
	2.501806	2.512045
	2.501486	2.512045
	2.501806	2.511405
	2.553002	2.511085
	2.501806	2.508205
	2.560042	2.505646
	2.519405	2.501806
	2.505006	2.498286
	2.514925	2.495086
	2.505006	2.492527
	2.506286	2.494766
	2.519085	2.491247
	2.505966	2.492527
	2.529964	2.494126
	2.515245	2.496046
	2.567401	2.497006
	2.511405	2.497646
	2.521324	2.496046
	2.548203	2.495726
	2.514605	2.493487
	2.511405	2.488047
	2.520685	2.487727
	2.517165	2.480047
	2.512045	2.477808
	2.524204	2.477168
	2.514285	2.477488
	2.527724	2.478128
	2.509805	2.480687
	2.517485	2.485167
	2.503406	2.492207
	2.498606	2.492207
	2.493167	2.494126
	2.497006	2.505006
	2.493167	2.497326
	2.502446	2.497326
	2.487727	2.496686
	2.488687	2.495086
	2.491567	2.493806
	2.483247	2.491247
	2.518125	2.490927
	2.483887	2.544043
	2.483247	2.488367
	2.493806	2.488047
	2.487727	2.487407
	2.492527	2.489327
	2.491247	2.489647
	2.495406	2.489967
	2.518765	2.490927
	2.501806	2.542123
	2.504046	2.489007
	2.506606	2.486767
	2.506926	2.485807
	2.508525	2.484207
	2.507565	2.483567
	2.508845	2.482607
	2.586600	2.484527
	2.510765	2.558762
	2.513965	2.488687
	2.518125	2.495086
	2.520045	2.498286
	2.587560	2.501166
	2.523884	2.504686
	2.527084	2.504686
	2.567721	2.504686
	2.530924	2.503726
	2.530284	2.499886
	2.529324	2.497646
	2.528044	2.496686
	2.531884	2.496046
	2.521964	2.498926
	2.520685	2.496046
	2.519085	2.496686
	2.516205	2.499566
	2.524204	2.500846
	2.514925	2.502126
	2.515245	2.502766
	2.529324	2.502766
	2.513645	2.528364
	2.563241	2.501486
	2.511725	2.501806
	2.508845	2.498606
	2.510445	2.499246
	2.501486	2.506606
	2.496686	2.502126
	2.496046	2.504046
	2.491887	2.507885
	2.492527	2.510445
	2.489007	2.514605
	2.488687	2.516525
	2.489967	2.519405
	2.491247	2.521324
	2.490927	2.523884
	2.489007	2.526124
	2.488047	2.525164
	2.508205	2.523884
	2.484207	2.568041
	2.484207	2.520045
	2.480367	2.517805
	2.480687	2.515565
	2.481647	2.514285
	2.480047	2.515885
	2.485167	2.513965
	2.483567	2.514285
	2.486767	2.514925
	2.489007	2.514925
	2.491887	2.515565
	2.498606	2.511085
	2.498606	2.507885
	2.502126	2.504686
	2.502766	2.502766
	2.504366	2.501166
	2.509165	2.500206
	2.508525	2.499886
	2.506606	2.503086
	2.509165	2.505646
	2.509805	2.510445
	2.513005	2.513645
	2.513645	2.515885
	2.516205	2.517165
	2.520685	2.518445
	2.524524	2.518445
	2.528364	2.516845
	2.530284	2.514925
	2.532844	2.513965
	2.533484	2.513325
	2.532204	2.513325
	2.531884	2.512685
	2.527724	2.513645
	2.526764	2.559722
	2.524844	2.507246
	2.521644	2.504686
	2.519085	2.499246
	2.517165	2.493806
	2.514605	2.489327
	2.514605	2.484207
	2.512685	2.480687
	2.511405	2.478128
	2.509165	2.480047
	2.508525	2.474608
	2.505646	2.472688
	2.503726	2.473648
	2.501166	2.473968
	2.499246	2.475248
	2.499566	2.476208
	2.499566	2.478128
	2.497006	2.481647
	2.496366	2.483887
	2.495406	2.487727
	2.495726	2.491887
	2.495086	2.494446
	2.492207	2.504046
	2.492207	2.501166
	2.490607	2.504366
	2.489327	2.506606
	2.492207	2.507565
	2.489327	2.545963
	2.488367	2.516845
	2.488047	2.520685
	2.488367	2.524204
	2.489967	2.529644
	2.490287	2.533804
	2.491247	2.537323
	2.491887	2.540203
	2.492527	2.540203
	2.492527	2.538603
	2.494766	2.537003
	2.495726	2.534444
	2.494446	2.532844
	2.496366	2.526764
	2.496046	2.522284
	2.496046	2.517165
	2.502126	2.514285
	2.498606	2.591079
	2.498286	2.508845
	2.499246	2.508205
	2.501486	2.507565
	2.502126	2.506286
	2.505006	2.506926
	2.507246	2.506926
	2.507565	2.510125
	2.507246	2.505966
	2.507246	2.504046
	2.507885	2.502446
	2.523244	2.499246
	2.508205	2.497326
	2.507885	2.494766
	2.509165	2.493167
	2.507565	2.491247
	2.506926	2.493487
	2.506606	2.493806
	2.513645	2.495726
	2.507246	2.565481
	2.506606	2.502126
	2.507885	2.504046
	2.505646	2.506606
	2.504366	2.507885
	2.502446	2.509805
	2.499566	2.509805
	2.497006	2.517805
	2.494766	2.512045
	2.491567	2.512685
	2.489007	2.514285
	2.484847	2.517485
	2.484207	2.521005
	2.482287	2.524204
	2.482607	2.530284
	2.480367	2.531244
	2.480367	2.532204
	2.480047	2.532204
	2.482287	2.533484
	2.483567	2.531564
	2.484527	2.530284
	2.487727	2.532844
	2.489327	2.525804
	2.493487	2.522284
	2.495406	2.520045
	2.502126	2.517485
	2.505326	2.514605
	2.506926	2.513645
	2.510125	2.517805
	2.513005	2.509165
	2.515885	2.508525
	2.516845	2.507885
	2.521005	2.506926
	2.517165	2.505646
	2.517485	2.505646
	2.514925	2.513965
	2.511405	2.509805
	2.508525	2.511725
	2.505326	2.513325
	2.501166	2.517165
	2.496686	2.520685
	2.497646	2.524204
	2.491567	2.532524
	2.490287	2.527404
	2.488687	2.528044
	2.487407	2.529004
	2.487727	2.525804
	2.487727	2.522284
	2.543403	2.518765
	2.490607	2.514925
	2.491887	2.510125
	2.492527	2.509485
	2.494766	2.503406
	2.497966	2.502766
	2.502126	2.504046
	2.507885	2.507246
	2.511405	2.508205
	2.529964	2.511085
	2.526444	2.546603
	2.533484	2.513645
	2.538923	2.512365
	2.542763	2.508845
	2.544683	2.504366
	2.544683	2.498926
	2.544043	2.493806
	2.539883	2.491247
	2.541163	2.489647
	2.534444	2.529964
	2.529324	2.492527
	2.523244	2.498926
	2.522604	2.502766
	2.520365	2.508525
	2.521324	2.512045
	2.524204	2.513325
	2.528684	2.512365
	2.542123	2.509485
	2.537643	2.513005
	2.544363	2.498286
	2.548842	2.494126
	2.553002	2.488687
	2.556202	2.485487
	2.556522	2.484207
	2.557482	2.485167
	2.554602	2.490287
	2.561322	2.494446
	2.547563	2.499886
	2.544683	2.505966
	2.539883	2.509805
	2.534764	2.508845
	2.530604	2.506606
	2.529004	2.501486
	2.528044	2.495406
	2.526764	2.486127
	2.527724	2.477488
	2.527404	2.473328
	2.529324	2.466928
	2.528044	2.503406
	2.527724	2.465968
	2.526764	2.470128
	2.525484	2.473968
	2.522284	2.480367
	2.519405	2.486447
	2.516845	2.492207
	2.513325	2.494446
	2.511405	2.497966
	2.508845	2.499566
	2.511405	2.499246
	2.506286	2.505646
	2.503726	2.503726
	2.501166	2.508205
	2.500846	2.511085
	2.497646	2.517165
	2.497006	2.523884
	2.495086	2.530924
	2.495086	2.536683
	2.493487	2.542123
	2.492207	2.545963
	2.514605	2.545643
	2.492847	2.546283
	2.495726	2.543083
	2.494446	2.566441
	2.497646	2.534444
	2.497646	2.531244
	2.499246	2.524524
	2.500526	2.520685
	2.500526	2.516205
	2.500846	2.513005
	2.501806	2.509485
	2.501806	2.508845
	2.502126	2.506606
	2.578600	2.507885
	2.501166	2.508525
	2.504366	2.511405
	2.500846	2.569001
	2.502446	2.513645
	2.500526	2.530604
	2.500526	2.517165
	2.500206	2.519405
	2.500526	2.518445
	2.499246	2.516525
	2.500526	2.514285
	2.495086	2.513325
	2.495406	2.510445
	2.492527	2.508525
	2.492527	2.506286
	2.513005	2.505966
	2.489967	2.508205
	2.494446	2.506926
	2.491567	2.515885
	2.493167	2.509485
	2.494446	2.515885
	2.496046	2.512685
	2.497966	2.515565
	2.500206	2.512045
	2.502126	2.555882
	2.503726	2.506606
	2.505646	2.503726
	2.507885	2.499886
	2.510445	2.497006
	2.515885	2.494766
	2.512045	2.492207
	2.513645	2.490927
	2.515565	2.489967
	2.518125	2.490287
	2.585320	2.490607
	2.521644	2.499566
	2.524524	2.493167
	2.524524	2.499886
	2.527404	2.497006
	2.525164	2.502766
	2.524204	2.520365
	2.523564	2.503086
	2.521005	2.502126
	2.518125	2.505006
	2.514285	2.507885
	2.511725	2.511085
	2.508205	2.512365
	2.504686	2.518765
	2.502126	2.518125
	2.500526	2.533484
	2.499886	2.547563
	2.498286	2.551402
	2.496366	2.585960
	2.497006	2.535403
	2.496046	2.577000
	2.576360	2.586280
	2.495726	2.572841
	2.534444	2.572201
	2.494126	2.525804
	2.500846	2.589480
	2.494446	2.517805
	2.497646	2.558762
	2.497966	2.514605
	2.500846	2.562921
	2.500846	2.516525
	2.504686	2.521964
	2.506606	2.513645
	2.510445	2.531564
	2.513005	2.511725
	2.513965	2.555882
	2.517165	2.509165
	2.519405	2.514605
	2.521644	2.505646
	2.522284	2.506926
	2.524204	2.501486
	2.524204	2.508845
	2.525164	2.501806
	2.523884	2.508205
	2.522284	2.504686
	2.523244	2.511725
	2.523244	2.507246
	2.522604	2.511405
	2.520045	2.509485
	2.519405	2.511405
	2.518765	2.508845
	2.517805	2.509165
	2.517165	2.507565
	2.518445	2.507246
	2.517485	2.504046
	2.517805	2.504046
	2.518125	2.499886
	2.517805	2.499886
	2.517485	2.496046
	2.518125	2.495086
	2.517485	2.491567
	2.518445	2.492527
	2.517165	2.489647
	2.516525	2.489007
	2.516205	2.488047
	2.515245	2.488047
	2.513005	2.489647
	2.511725	2.491887
	2.509805	2.490927
	2.510445	2.492527
	2.510125	2.492847
	2.507246	2.495406
	2.540523	2.495726
	2.504366	2.496046
	2.547883	2.495726
	2.501166	2.495086
	2.500206	2.496366
	2.497966	2.496686
	2.560682	2.498606
	2.495086	2.500206
	2.493806	2.500846
	2.492207	2.502126
	2.489007	2.505006
	2.489327	2.505326
	2.487727	2.507885
	2.487727	2.511085
	2.486447	2.511725
	2.487407	2.513005
	2.486447	2.513325
	2.486767	2.513325
	2.487087	2.512685
	2.487407	2.512365
	2.486767	2.511725
	2.487407	2.509805
	2.486127	2.509165
	2.485807	2.507246
	2.486447	2.505326
	2.486447	2.503726
	2.485487	2.502126
	2.485807	2.501486
	2.486127	2.500846
	2.486447	2.500526
	2.487727	2.500846
	2.489007	2.517165
	2.489327	2.502126
	2.489647	2.504366
	2.489327	2.504366
	2.489967	2.506286
	2.489327	2.506286
	2.488367	2.509805
	2.488367	2.509805
	2.488047	2.513965
	2.490607	2.512045
	2.491247	2.548203
	2.492207	2.513965
	2.494766	2.510445
	2.497966	2.510125
	2.499246	2.582440
	2.503406	2.509165
	2.506606	2.508845
	2.507565	2.508845
	2.511405	2.525804
	2.511405	2.504686
	2.515245	2.503406
	2.512685	2.513325
	2.521324	2.518445
	2.515245	2.508845
	2.521324	2.507246
	2.517805	2.509165
	2.532204	2.510445
	2.519085	2.512685
	2.520045	2.512365
	2.519085	2.518445
	2.517485	2.516845
	2.516205	2.518445
	2.512045	2.519405
	2.508205	2.523244
	2.503726	2.531564
	2.498606	2.527404
	2.496046	2.559082
	2.491887	2.534444
	2.490287	2.535403
	2.488047	2.539883
	2.487087	2.540203
	2.487727	2.543083
	2.487407	2.540523
	2.488047	2.542443
	2.487727	2.539563
	2.488687	2.540843
	2.488687	2.533804
	2.491887	2.536043
	2.489327	2.527404
	2.502446	2.528044
	2.488047	2.520365
	2.489007	2.518125
	2.491247	2.513965
	2.493167	2.525804
	2.496046	2.508205
	2.497646	2.503406
	2.500846	2.501486
	2.505326	2.497326
	2.506926	2.495086
	2.508525	2.491567
	2.508845	2.489967
	2.508845	2.486767
	2.507885	2.485807
	2.506606	2.485487
	2.505006	2.483567
	2.502766	2.482927
	2.505006	2.486127
	2.500206	2.482287
	2.514925	2.506926
	2.498286	2.482927
	2.498286	2.483567
	2.498286	2.482927
	2.499246	2.483567
	2.499886	2.483887
	2.498286	2.484847
	2.497646	2.484847
	2.498286	2.484207
	2.496046	2.482927
	2.495726	2.483247
	2.494446	2.483567
	2.492847	2.481967
	2.492207	2.488367
	2.490927	2.484207
	2.507565	2.497646
	2.490287	2.486447
	2.489327	2.487727
	2.490927	2.490927
	2.490287	2.488367
	2.488687	2.492847
	2.489007	2.494766
	2.489647	2.496046
	2.489327	2.495726
	2.490287	2.495406
	2.490287	2.495726
	2.491247	2.494766
	2.489327	2.492847
	2.497966	2.505966
	2.492207	2.489327
	2.494446	2.486447
	2.496686	2.483887
	2.497646	2.481967
	2.499246	2.480367
	2.501486	2.479408
	2.504686	2.480367
	2.506606	2.480047
	2.509805	2.481647
	2.512365	2.479728
	2.520685	2.484207
	2.515565	2.479088
	2.545323	2.479408
	2.514605	2.477488
	2.514605	2.477488
	2.513645	2.475888
	2.513325	2.476528
	2.512365	2.483887
	2.509485	2.478768
	2.508845	2.480687
	2.505006	2.484847
	2.509805	2.492847
	2.504686	2.494766
	2.558762	2.500846
	2.553002	2.505006
	2.510765	2.508845
	2.543083	2.512045
	2.562601	2.516205
	2.525164	2.517485
	2.540843	2.516525
	2.514605	2.516205
	2.550442	2.515565
	2.514605	2.541163
	2.553642	2.514605
	2.513965	2.515885
	2.508205	2.518125
	2.508845	2.522924
	2.509805	2.528044
	2.509805	2.533484
	2.506926	2.539883
	2.513325	2.545003
	2.502446	2.549482
	2.505966	2.553642
	2.508845	2.554922
	2.505006	2.555242
	2.503086	2.555882
	2.500846	2.554922
	2.495406	2.551722
	2.496046	2.552042
	2.494446	2.551722
	2.490607	2.552042
	2.495086	2.553002
	2.494446	2.555562
	2.497646	2.558762
	2.497006	2.561642
	2.502126	2.564521
	2.503406	2.563881
	2.503086	2.563561
	2.507565	2.559722
	2.505646	2.557802
	2.509165	2.551722
	2.506286	2.545003
	2.507246	2.537003
	2.504046	2.530284
	2.502126	2.526124
	2.503406	2.519725
	2.500846	2.515565
	2.502766	2.513325
	2.502126	2.512685
	2.505006	2.508525
	2.505006	2.508525
	2.506926	2.506286
	2.507565	2.504686
	2.509165	2.501806
	2.510125	2.497326
	2.510445	2.493487
	2.511405	2.489967
	2.513005	2.522604
	2.512045	2.482287
	2.509805	2.480367
	2.512045	2.479408
	2.519405	2.480687
	2.504366	2.482927
	2.517805	2.486127
	2.508525	2.492207
	2.516525	2.493806
	2.530284	2.497646
	2.557162	2.501166
	2.507885	2.502766
	2.524204	2.502446
	2.512365	2.503406
	2.504686	2.503406
	2.506606	2.499886
	2.513325	2.499566
	2.516845	2.498606
	2.501806	2.498926
	2.513645	2.498286
	2.505646	2.499566
	2.499566	2.502126
	2.502446	2.501806
	2.504686	2.504366
	2.508525	2.505646
	2.499886	2.506926
	2.505646	2.508205
	2.505326	2.506286
	2.504046	2.510765
	2.506606	2.507246
	2.507246	2.506926
	2.510125	2.505326
	2.505006	2.504366
	2.542443	2.504686
	2.504686	2.504686
	2.502126	2.506286
	2.501166	2.508205
	2.502126	2.508845
	2.511405	2.510445
	2.503086	2.513645
	2.503406	2.515565
	2.505326	2.517165
	2.505646	2.518765
	2.509165	2.521005
	2.509805	2.521964
	2.512685	2.522924
	2.510125	2.522604
	2.509805	2.557802
	2.508525	2.523564
	2.506606	2.525804
	2.509165	2.525484
	2.502126	2.525804
	2.580200	2.527404
	2.496366	2.528364
	2.495086	2.529324
	2.493487	2.528684
	2.491887	2.527724
	2.492847	2.525164
	2.490927	2.523884
	2.490927	2.524204
	2.490607	2.516845
	2.492207	2.513005
	2.493167	2.508845
	2.490927	2.505326
	2.491567	2.502126
	2.491567	2.497326
	2.492527	2.494446
	2.492847	2.491887
	2.493167	2.487407
	2.493806	2.484207
	2.495086	2.481647
	2.497326	2.491567
	2.520045	2.474928
	2.500526	2.472048
	2.502446	2.470448
	2.503086	2.470448
	2.504686	2.471728
	2.504686	2.473328
	2.505006	2.475568
	2.505326	2.479088
	2.503406	2.482607
	2.564521	2.488367
	2.502766	2.492207
	2.503086	2.497966
	2.504046	2.502126
	2.503726	2.505006
	2.505326	2.508525
	2.505646	2.509485
	2.506286	2.673953
	2.508845	2.510125
	2.507565	2.509805
	2.507885	2.511085
	2.507246	2.511085
	2.505326	2.513005
	2.505646	2.510445
	2.501486	2.510445
	2.499566	2.510765
	2.496686	2.509485
	2.496046	2.509165
	2.509805	2.510445
	2.491567	2.510125
	2.490927	2.510765
	2.488687	2.510445
	2.489647	2.509805
	2.490607	2.510445
	2.488367	2.510765
	2.487407	2.511085
	2.485487	2.511085
	2.486127	2.509485
	2.484847	2.508525
	2.483887	2.508205
	2.483567	2.506606
	2.484527	2.505326
	2.484847	2.504046
	2.487407	2.502766
	2.489967	2.502126
	2.493806	2.500846
	2.497006	2.500526
	2.500206	2.501166
	2.503406	2.499566
	2.505326	2.499566
	2.507885	2.498606
	2.509805	2.499566
	2.510125	2.501166
	2.510125	2.499246
	2.508525	2.500846
	2.507565	2.501166
	2.505646	2.501806
	2.503726	2.542123
	2.503086	2.506606
	2.501486	2.507565
	2.500526	2.510125
	2.499246	2.511085
	2.497326	2.513005
	2.496686	2.512685
	2.493487	2.513005
	2.491887	2.511085
	2.489327	2.508845
	2.485167	2.506926
	2.481327	2.505966
	2.476848	2.503726
	2.473328	2.502126
	2.470448	2.500846
	2.468848	2.500206
	2.465968	2.499566
	2.469808	2.499886
	2.466288	2.557482
	2.467568	2.500206
	2.468848	2.499886
	2.471408	2.499566
	2.474928	2.500206
	2.478448	2.498606
	2.480367	2.497646
	2.481647	2.496046
	2.483247	2.495086
	2.484527	2.493167
	2.483887	2.493487
	2.484847	2.493487
	2.486447	2.494126
	2.486447	2.508845
	2.485487	2.498606
	2.488367	2.502126
	2.490927	2.505646
	2.492847	2.509805
	2.495726	2.513325
	2.500206	2.516205
	2.505966	2.518125
	2.511405	2.520045
	2.521324	2.519085
	2.529324	2.517805
	2.542123	2.516525
	2.554602	2.513005
	2.562921	2.512045
	2.575721	2.504686
	2.586280	2.499566
	2.602919	2.494766
	2.602919	2.490927
	2.607398	2.488367
	2.606438	2.484527
	2.606118	2.481967
	2.600999	2.502446
	2.597479	2.479088
	2.589160	2.478128
	2.583080	2.477488
	2.575081	2.477488
	2.569001	2.479728
	2.565801	2.481327
	2.561962	2.484207
	2.560362	2.497966
	2.560362	2.492527
	2.560042	2.497326
	2.562282	2.502766
	2.564201	2.509485
	2.566121	2.514925
	2.567081	2.519085
	2.569641	2.523884
	2.570921	2.531564
	2.573801	2.531564
	2.577000	2.533164
	2.585320	2.535403
	2.580840	2.536683
	2.582760	2.538603
	2.582440	2.538923
	2.579880	2.540203
	2.576360	2.677473
	2.571881	2.541483
	2.567721	2.544043
	2.558762	2.543723
	2.549162	2.545643
	2.537643	2.546603
	2.526444	2.546283
	2.519085	2.544683
	2.512045	2.544043
	2.503726	2.540523
	2.498286	2.536683
	2.495726	2.537323
	2.494446	2.527084
	2.494766	2.520045
	2.576360	2.514605
	2.500526	2.507565
	2.502766	2.501806
	2.507246	2.496046
	2.511725	2.492847
	2.514605	2.489327
	2.518125	2.486767
	2.519405	2.485487
	2.521964	2.493167
	2.521644	2.485167
	2.521964	2.486447
	2.521964	2.487407
	2.521964	2.486767
	2.522604	2.488047
	2.521644	2.489967
	2.520685	2.490607
	2.520045	2.491247
	2.519405	2.491887
	2.518445	2.491567
	2.516525	2.624677
	2.514605	2.495726
	2.511725	2.497006
	2.509805	2.499886
	2.508525	2.502446
	2.509485	2.505966
	2.542123	2.511405
	2.513005	2.513005
	2.515565	2.516205
	2.521005	2.518125
	2.527404	2.518445
	2.533164	2.520045
	2.538923	2.518445
	2.543403	2.517165
	2.546283	2.515565
	2.549802	2.513325
	2.549482	2.512685
	2.549482	2.517165
	2.548842	2.510765
	2.547243	2.510445
	2.545643	2.510765
	2.545323	2.512365
	2.545003	2.512365
	2.547563	2.513005
	2.547563	2.513645
	2.547883	2.514605
	2.548203	2.514285
	2.549162	2.514285
	2.549162	2.514285
	2.545963	2.516845
	2.544043	2.516845
	2.539563	2.518445
	2.534444	2.519085
	2.529964	2.520685
	2.522924	2.552682
	2.519405	2.523564
	2.513325	2.522284
	2.509485	2.528364
	2.506926	2.521644
	2.502766	2.519725
	2.501806	2.519085
	2.497646	2.515565
	2.495406	2.514925
	2.494126	2.514285
	2.490927	2.514925
	2.489007	2.515245
	2.483567	2.518125
	2.480687	2.521005
	2.477808	2.525804
	2.480367	2.528684
	2.473648	2.531244
	2.471728	2.534764
	2.471728	2.537323
	2.470128	2.537963
	2.469808	2.539563
	2.470768	2.540843
	2.471408	2.539243
	2.471408	2.538283
	2.471728	2.538283
	2.473328	2.536363
	2.475568	2.535403
	2.476528	2.536043
	2.477808	2.535723
	2.480047	2.534764
	2.482607	2.533804
	2.486767	2.533164
	2.491247	2.530604
	2.494446	2.527404
	2.498606	2.523564
	2.502126	2.533484
	2.505966	2.511405
	2.508525	2.504046
	2.509805	2.520045
	2.512365	2.490607
	2.514285	2.484207
	2.517165	2.502766
	2.519405	2.474288
	2.520685	2.473328
	2.524204	2.575081
	2.528364	2.466608
	2.533804	2.463729
	2.536363	2.462769
	2.539883	2.459569
	2.542763	2.456049
	2.545323	2.525164
	2.547563	2.451890
	2.547243	2.449010
	2.545643	2.451890
	2.543723	2.446450
	2.540203	2.446450
	2.536683	2.480687
	2.534124	2.450930
	2.531884	2.453809
	2.529644	2.476208
	2.527084	2.462129
	2.524524	2.466608
	2.525164	2.568041
	2.526764	2.477168
	2.528364	2.480047
	2.531244	2.481967
	2.531884	2.483567
	2.533804	2.484527
	2.535403	2.485167
	2.536043	2.483887
	2.536683	2.484527
	2.535723	2.484207
	2.534124	2.482927
	2.533804	2.481647
	2.531884	2.481327
	2.529964	2.480047
	2.528044	2.479088
	2.527724	2.478128
	2.528044	2.476848
	2.528364	2.475888
	2.530924	2.474928
	2.534124	2.476848
	2.538283	2.477488
	2.541163	2.477168
	2.546283	2.479408
	2.550442	2.480047
	2.556842	2.480687
	2.558442	2.483247
	2.565801	2.483567
	2.569961	2.484207
	2.573801	2.488367
	2.577960	2.484847
	2.580200	2.484847
	2.581800	2.485487
	2.584360	2.486127
	2.584680	2.487087
	2.583080	2.488047
	2.581160	2.489647
	2.578600	2.491247
	2.574761	2.492207
	2.570921	2.493487
	2.565161	2.494126
	2.561642	2.494446
	2.554922	2.496046
	2.548842	2.495406
	2.542763	2.497326
	2.536683	2.502766
	2.532844	2.501486
	2.528044	2.505326
	2.521964	2.641956
	2.516525	2.515885
	2.511725	2.521644
	2.509165	2.527404
	2.502126	2.534444
	2.500206	2.539563
	2.495406	2.544043
	2.491887	2.547563
	2.488687	2.550762
	2.483887	2.553962
	2.478768	2.558122
	2.473328	2.559082
	2.468528	2.561642
	2.464689	2.586600
	2.459889	2.564841
	2.454769	2.567401
	2.451890	2.569961
	2.449650	2.571241
	2.449330	2.572521
	2.447090	2.573801
	2.447090	2.574441
	2.449010	2.573481
	2.449970	2.572521
	2.450610	2.570281
	2.452849	2.566121
	2.454769	2.563881
	2.457009	2.598439
	2.458929	2.555562
	2.461169	2.552042
	2.462449	2.547563
	2.475248	2.544043
	2.466928	2.541483
	2.468848	2.539243
	2.471408	2.537323
	2.473968	2.536363
	2.476208	2.535403
	2.478768	2.539243
	2.479408	2.530924
	2.481007	2.533484
	2.481967	2.531244
	2.483247	2.532524
	2.481327	2.530284
	2.481327	2.529324
	2.479728	2.528044
	2.479408	2.526444
	2.478448	2.524524
	2.478768	2.525804
	2.479728	2.517805
	2.481007	2.517165
	2.485807	2.514605
	2.490287	2.510765
	2.495726	2.507885
	2.500526	2.504366
	2.508525	2.501486
	2.515885	2.498286
	2.523244	2.495086
	2.529644	2.494766
	2.534444	2.493806
	2.538603	2.493167
	2.544043	2.492527
	2.547243	2.494446
	2.550762	2.495726
	2.552042	2.497646
	2.553642	2.499886
	2.553962	2.497646
	2.555562	2.497966
	2.554922	2.504686
	2.608998	2.495726
	2.552362	2.496046
	2.551082	2.495406
	2.549162	2.494766
	2.544363	2.495406
	2.543403	2.497006
	2.540203	2.563241
	2.556842	2.503086
	2.532844	2.507246
	2.528364	2.510765
	2.526764	2.513965
	2.523244	2.514925
	2.518445	2.513005
	2.513965	2.638756
	2.512045	2.505326
	2.504686	2.498606
	2.500846	2.492207
	2.497326	2.486447
	2.495086	2.479408
	2.488687	2.476208
	2.492207	2.487407
	2.499246	2.473648
	2.492207	2.473968
	2.491887	2.474928
	2.493806	2.478768
	2.493806	2.481007
	2.494446	2.482287
	2.495086	2.492847
	2.533804	2.479728
	2.495086	2.476848
	2.495086	2.470128
	2.493806	2.467888
	2.493487	2.462769
	2.493487	2.458929
	2.493487	2.467568
	2.494766	2.457649
	2.495726	2.458609
	2.496686	2.460849
	2.497966	2.466608
	2.500206	2.468208
	2.501166	2.470768
	2.504366	2.474288
	2.506286	2.475568
	2.507565	2.474608
	2.509165	2.473968
	2.510125	2.475248
	2.552362	2.469808
	2.509485	2.467568
	2.510445	2.465968
	2.511085	2.465968
	2.513965	2.465649
	2.518125	2.466928
	2.524524	2.469808
	2.533484	2.473328
	2.538923	2.478768
	2.549482	2.482607
	2.558762	2.490287
	2.586600	2.491567
	2.574761	2.494126
	2.578920	2.498286
	2.581800	2.517165
	2.579560	2.505966
	2.576041	2.525164
	2.568681	2.558442
	2.563561	2.545323
	2.554922	2.520685
	2.545003	2.624357
	2.535083	2.605478
	2.639396	2.534764
	2.522284	2.568361
	2.515245	2.579560
	2.512045	2.555242
	2.508205	2.548523
	2.505966	2.580840
	2.505646	2.563561
	2.504686	2.566121
	2.503406	2.564841
	2.504046	2.587880
	2.504046	2.599079
	2.503726	2.590119
	2.502446	2.594599
	2.501806	2.606118
	2.502766	2.616038
	2.503406	2.603239
	2.504366	2.602279
	2.506286	2.593639
	2.509165	2.643876
	2.513645	2.573161
	2.514605	2.569001
	2.521324	2.562921
	2.525804	2.550442
	2.532524	2.541803
	2.537963	2.540203
	2.541483	2.537643
	2.545643	2.533804
	2.548842	2.530284
	2.552042	2.531884
	2.550762	2.532844
	2.551722	2.533484
	2.551722	2.536363
	2.550442	2.545323
	2.548203	2.550442
	2.546283	2.559402
	2.545323	2.568681
	2.543083	2.582440
	2.542763	2.591719
	2.541483	2.597479
	2.543083	2.601959
	2.542763	2.605158
	2.544363	2.608358
	2.555242	2.594279
	2.544683	2.587560
	2.545643	2.573801
	2.546283	2.561002
	2.547563	2.544043
	2.544683	2.535403
	2.545323	2.521324
	2.544043	2.510125
	2.543083	2.499566
	2.540523	2.494766
	2.540203	2.492207
	2.539243	2.493167
	2.537643	2.492207
	2.535723	2.494766
	2.531884	2.496366
	2.529324	2.501806
	2.523884	2.499246
	2.521005	2.500206
	2.516845	2.498926
	2.512045	2.499246
	2.506606	2.496686
	2.503086	2.496046
	2.500206	2.497646
	2.495086	2.499246
	2.491887	2.501486
	2.489007	2.505646
	2.488687	2.509485
	2.487407	2.511725
	2.486447	2.515885
	2.486127	2.518125
	2.488687	2.520685
	2.490927	2.521964
	2.492207	2.521644
	2.493487	2.522604
	2.497326	2.521964
	2.498926	2.524204
	2.523244	2.525804
	2.501166	2.527724
	2.500846	2.531564
	2.501166	2.533804
	2.515565	2.573801
	2.496686	2.538923
	2.494446	2.540203
	2.492527	2.541483
	2.489967	2.542763
	2.486767	2.541163
	2.482927	2.539243
	2.480687	2.536683
	2.480367	2.533804
	2.478448	2.530604
	2.477808	2.528044
	2.479088	2.526124
	2.479088	2.525164
	2.478448	2.524524
	2.479728	2.522604
	2.479408	2.522924
	2.479408	2.523884
	2.479088	2.524844
	2.478768	2.528364
	2.478448	2.528044
	2.477808	2.527084
	2.481967	2.531884
	2.478448	2.529324
	2.480687	2.529324
	2.482287	2.530604
	2.592999	2.532524
	2.486447	2.534444
	2.487407	2.538923
	2.489007	2.544683
	2.491247	2.552362
	2.494126	2.559082
	2.496046	2.569001
	2.498286	2.577320
	2.502126	2.585000
	2.502766	2.588520
	2.505646	2.591719
	2.508205	2.592679
	2.510765	2.589480
	2.515565	2.585640
	2.514285	2.577320
	2.517485	2.568681
	2.517165	2.557482
	2.545323	2.546923
	2.518765	2.536363
	2.517165	2.525164
	2.514605	2.513965
	2.515565	2.503726
	2.515245	2.494766
	2.512685	2.483887
	2.513965	2.475248
	2.514925	2.466928
	2.520685	2.462449
	2.520045	2.459569
	2.524204	2.458289
	2.529324	2.457649
	2.532844	2.464049
	2.535403	2.470128
	2.537963	2.478448
	2.538603	2.487087
	2.538283	2.495406
	2.537003	2.504366
	2.534124	2.512045
	2.529964	2.517485
	2.523884	2.521005
	2.551722	2.525484
	2.514285	2.528684
	2.511085	2.528364
	2.507885	2.528684
	2.504686	2.529004
	2.505006	2.530284
	2.502446	2.530604
	2.503406	2.531884
	2.502766	2.531884
	2.510125	2.530924
	2.502766	2.530284
	2.502126	2.527724
	2.501486	2.523884
	2.502126	2.519405
	2.502446	2.513965
	2.499886	2.509485
	2.498606	2.505326
	2.498286	2.502126
	2.508845	2.498286
	2.497326	2.497966
	2.496046	2.497646
	2.497326	2.499886
	2.496046	2.502126
	2.499886	2.501806
	2.495086	2.503726
	2.505006	2.504686
	2.560362	2.504686
	2.521005	2.504046
	2.501806	2.502766
	2.488047	2.501166
	2.567081	2.497006
	2.540203	2.496046
	2.627877	2.493487
	2.486127	2.491567
	2.486447	2.491247
	2.519405	2.489647
	2.509165	2.490607
	2.509165	2.490287
	2.501486	2.490287
	2.514925	2.489647
	2.520685	2.488367
	2.520685	2.486767
	2.518445	2.485487
	2.515565	2.482927
	2.524204	2.481967
	2.527404	2.480687
	2.527084	2.480367
	2.527084	2.480687
	2.527404	2.482927
	2.534444	2.485167
	2.535403	2.488367
	2.534764	2.493487
	2.533804	2.496686
	2.530924	2.503406
	2.534124	2.506606
	2.532844	2.510125
	2.531244	2.513005
	2.527724	2.514605
	2.527084	2.516525
	2.527404	2.517485
	2.526124	2.517805
	2.525164	2.517805
	2.522924	2.517485
	2.524844	2.517165
	2.525804	2.517485
	2.526764	2.516205
	2.534444	2.515885
	2.527404	2.515565
	2.579880	2.515245
	2.528364	2.517165
	2.526444	2.519405
	2.529324	2.521644
	2.524524	2.523564
	2.533804	2.527084
	2.521324	2.531564
	2.518125	2.536043
	2.516525	2.539243
	2.511725	2.542443
	2.507565	2.546283
	2.503406	2.548842
	2.500846	2.549162
	2.497326	2.548203
	2.491887	2.548842
	2.488047	2.545643
	2.486767	2.543403
	2.484207	2.538923
	2.482287	2.536043
	2.480687	2.530284
	2.476848	2.527404
	2.472688	2.525164
	2.472048	2.524524
	2.469808	2.524844
	2.468528	2.526444
	2.465329	2.527724
	2.462769	2.530284
	2.461809	2.530924
	2.462769	2.530924
	2.461809	2.528684
	2.459249	2.525484
	2.462449	2.522604
	2.460849	2.515565
	2.461809	2.511085
	2.464049	2.505646
	2.469488	2.498606
	2.472048	2.494126
	2.473968	2.488687
	2.479088	2.485487
	2.483887	2.483567
	2.489007	2.481007
	2.495086	2.483247
	2.498926	2.482287
	2.504046	2.483567
	2.509485	2.483567
	2.514285	2.485167
	2.517485	2.486767
	2.518125	2.487727
	2.518765	2.492207
	2.519085	2.494126
	2.517165	2.497966
	2.517485	2.503086
	2.513645	2.519085
	2.509485	2.514285
	2.506286	2.519405
	2.504046	2.525164
	2.502126	2.529004
	2.502766	2.532844
	2.501806	2.532844
	2.503406	2.532844
	2.506926	2.530924
	2.509485	2.527724
	2.530284	2.523884
	2.516525	2.520365
	2.523244	2.515245
	2.527084	2.509485
	2.529644	2.505646
	2.534764	2.502766
	2.539883	2.500206
	2.545003	2.498926
	2.546283	2.498606
	2.552362	2.498606
	2.556522	2.499566
	2.559402	2.499886
	2.561322	2.499886
	2.562921	2.499566
	2.562921	2.499886
	2.561642	2.501486
	2.559722	2.503086
	2.554602	2.505326
	2.555882	2.510125
	2.549802	2.515565
	2.547883	2.517485
	2.544363	2.530284
	2.543723	2.539563
	2.541483	2.550762
	2.540203	2.561002
	2.537323	2.571881
	2.534124	2.582440
	2.529644	2.588520
	2.523884	2.593959
	2.520365	2.595239
	2.512045	2.593319
	2.504046	2.588200
	2.495726	2.580520
	2.488687	2.572201
	2.482607	2.564201
	2.479088	2.556842
	2.474928	2.552362
	2.471728	2.549162
	2.473328	2.549482
	2.473968	2.551402
	2.476848	2.557802
	2.480047	2.566441
	2.485167	2.569321
	2.489967	2.572521
	2.493806	2.573801
	2.498606	2.571241
	2.502766	2.564201
	2.506606	2.553002
	2.508525	2.539243
	2.511405	2.523564
	2.513005	2.505646
	2.514925	2.491567
	2.515565	2.478128
	2.519085	2.508205
	2.519725	2.458609
	2.522284	2.455089
	2.526124	2.454129
	2.529964	2.454449
	2.532844	2.458609
	2.535083	2.462449
	2.538603	2.466288
	2.541483	2.469488
	2.543083	2.470128
	2.541803	2.469808
	2.539883	2.468848
	2.537643	2.468528
	2.532204	2.469488
	2.527724	2.473328
	2.522604	2.479408
	2.518445	2.489967
	2.516525	2.505966
	2.514605	2.525804
	2.522924	2.549802
	2.513965	2.575721
	2.516845	2.602279
	2.519085	2.627237
	2.523244	2.649635
	2.528684	2.666274
	2.531564	2.676513
	2.534444	2.678753
	2.536683	2.676193
	2.536043	2.668514
	2.535403	2.660514
	2.534444	2.653155
	2.530924	2.648995
	2.532524	2.648035
	2.524204	2.652835
	2.521005	2.662434
	2.520045	2.672674
	2.518445	2.685473
	2.518445	2.697952
	2.519725	2.704031
	2.521324	2.706271
	2.522284	2.703071
	2.522284	2.693792
	2.522604	2.681313
	2.523244	2.665314
	2.522604	2.648355
	2.520685	2.637796
	2.520685	2.626597
	2.521324	2.621797
	2.520365	2.619877
	2.521324	2.623077
	2.521324	2.628837
	2.523884	2.633636
	2.526764	2.636836
	2.529004	2.639396
	2.530924	2.636196
	2.532524	2.629477
	2.534764	2.619877
	2.534444	2.605798
	2.535083	2.589800
	2.534444	2.575401
	2.531884	2.563241
	2.529964	2.552362
	2.525484	2.544363
	2.521644	2.540203
	2.518445	2.537323
	2.515245	2.535083
	2.511725	2.535403
	2.507885	2.534444
	2.505646	2.531564
	2.504686	2.529004
	2.504046	2.524524
	2.503406	2.517485
	2.504686	2.514925
	2.505326	2.502766
	2.505966	2.494446
	2.505646	2.487407
	2.506926	2.479408
	2.504686	2.473648
	2.504686	2.468848
	2.503406	2.471728
	2.501486	2.460529
	2.499566	2.455409
	2.495726	2.452209
	2.491887	2.448690
	2.489327	2.443570
	2.486767	2.442290
	2.484847	2.442290
	2.483887	2.444530
	2.482607	2.449970
	2.482287	2.457649
	2.481967	2.468848
	2.480047	2.481967
	2.478448	2.496046
	2.475888	2.510125
	2.474288	2.529324
	2.470448	2.531564
	2.467248	2.537963
	2.462769	2.539883
	2.462129	2.538283
	2.461169	2.533484
	2.461489	2.526124
	2.464049	2.518445
	2.468208	2.510765
	2.471728	2.503406
	2.477168	2.499566
	2.483247	2.497326
	2.490927	2.495726
	2.499246	2.495406
	2.508525	2.497006
	2.512685	2.497966
	2.526444	2.499246
	2.528364	2.497006
	2.535723	2.493806
	2.542763	2.492527
	2.547243	2.488687
	2.552362	2.484527
	2.559082	2.480367
	2.564521	2.479408
	2.583080	2.479408
	2.570921	2.480687
	2.572521	2.485487
	2.574441	2.490287
	2.576360	2.497966
	2.576680	2.504046
	2.577000	2.509485
	2.576360	2.513005
	2.575081	2.546283
	2.573161	2.514605
	2.573481	2.513325
	2.569641	2.513005
	2.568041	2.508845
	2.563561	2.510445
	2.560362	2.511405
	2.554922	2.513005
	2.550122	2.518765
	2.542443	2.526124
	2.533484	2.535083
	2.522284	2.546283
	2.511085	2.552042
	2.503406	2.559402
	2.490927	2.565801
	2.477488	2.569641
	2.464689	2.577000
	2.454769	2.577960
	2.447090	2.580840
	2.438450	2.585640
	2.432371	2.592039
	2.429811	2.599719
	2.428211	2.607718
	2.427571	2.617957
	2.428531	2.626597
	2.430451	2.632676
	2.433011	2.636196
	2.435571	2.637476
	2.439730	2.636196
	2.443570	2.631077
	2.447730	2.623397
	2.452209	2.614438
	2.455089	2.604198
	2.458609	2.596199
	2.499566	2.588200
	2.465009	2.580840
	2.470448	2.575721
	2.471408	2.572521
	2.475888	2.567721
	2.480047	2.565161
	2.482927	2.559722
	2.488047	2.553322
	2.490607	2.546603
	2.495726	2.539563
	2.500206	2.529324
	2.505326	2.517485
	2.509805	2.508525
	2.514925	2.498926
	2.520685	2.491567
	2.526124	2.485807
	2.535083	2.481327
	2.542123	2.480367
	2.546923	2.479088
	2.554282	2.479408
	2.560682	2.479728
	2.565801	2.480367
	2.569961	2.480367
	2.572521	2.480367
	2.577000	2.480367
	2.576041	2.480047
	2.577960	2.480367
	2.578600	2.479728
	2.577640	2.481007
	2.579240	2.480687
	2.579560	2.481327
	2.579240	2.481967
	2.577960	2.481647
	2.578280	2.481327
	2.577000	2.478768
	2.577640	2.474928
	2.577000	2.469488
	2.576680	2.463089
	2.576680	2.457329
	2.576360	2.450290
	2.577000	2.442930
	2.578600	2.438131
	2.581160	2.434611
	2.581480	2.432691
	2.583720	2.434291
	2.585000	2.437811
	2.583400	2.444530
	2.582120	2.451890
	2.579560	2.459889
	2.573801	2.470448
	2.566761	2.478448
	2.558762	2.485807
	2.552042	2.490607
	2.541803	2.493806
	2.532204	2.493806
	2.522604	2.494126
	2.512045	2.492527
	2.507885	2.492527
	2.501166	2.493487
	2.495726	2.498926
	2.490287	2.506606
	2.487087	2.516525
	2.526124	2.528364
	2.480367	2.543083
	2.475248	2.556842
	2.470448	2.569321
	2.464689	2.577960
	2.459569	2.585000
	2.450930	2.587880
	2.442290	2.588520
	2.434931	2.587560
	2.429171	2.588200
	2.420852	2.590759
	2.416372	2.594279
	2.410293	2.602919
	2.404533	2.616678
	2.405813	2.631397
	2.405813	2.648355
	2.407093	2.664994
	2.410293	2.778586
	2.416372	2.685153
	2.421172	2.687072
	2.425971	2.682913
	2.433651	2.672354
	2.443250	2.648995
	2.453169	2.631716
	2.463729	2.609638
	2.471088	2.593639
	2.483247	2.575401
	2.495086	2.556522
	2.507246	2.544683
	2.519085	2.537003
	2.526444	2.535083
	2.535403	2.537323
	2.544363	2.540523
	2.552362	2.543403
	2.558122	2.544683
	2.562282	2.545323
	2.566121	2.541163
	2.570921	2.535083
	2.574121	2.525164
	2.576041	2.514285
	2.578280	2.502766
	2.579240	2.492527
	2.580200	2.483247
	2.577000	2.476528
	2.574441	2.471088
	2.572201	2.466608
	2.567081	2.463409
	2.563241	2.460529
	2.558442	2.456049
	2.555242	2.451890
	2.551722	2.446770
	2.549162	2.440690
	2.547243	2.433331
	2.545003	2.428531
	2.544683	2.425651
	2.541803	2.426291
	2.538283	2.430131
	2.534124	2.437811
	2.528684	2.450290
	2.522284	2.464369
	2.514285	2.478448
	2.502766	2.493487
	2.493487	2.505966
	2.482927	2.514285
	2.477168	2.519725
	2.469488	2.521644
	2.461169	2.521964
	2.457329	2.520045
	2.454449	2.517485
	2.453809	2.516205
	2.455089	2.514605
	2.456049	2.514925
	2.457329	2.516525
	2.459249	2.518765
	2.460849	2.520045
	2.460849	2.521005
	2.463729	2.519725
	2.465329	2.518125
	2.466288	2.514925
	2.466608	2.511405
	2.469808	2.506286
	2.473328	2.502446
	2.476528	2.501166
	2.481327	2.502446
	2.484847	2.505646
	2.490927	2.510765
	2.496686	2.516525
	2.502766	2.523884
	2.508845	2.530604
	2.510765	2.534764
	2.512045	2.537963
	2.515245	2.540203
	2.515245	2.541483
	2.515565	2.540523
	2.513965	2.538603
	2.513005	2.537643
	2.510445	2.538923
	2.509165	2.541483
	2.507885	2.547883
	2.506606	2.556522
	2.506286	2.567081
	2.504686	2.579240
	2.505646	2.591719
	2.505006	2.603559
	2.505966	2.612198
	2.506606	2.618917
	2.505966	2.622117
	2.508205	2.624037
	2.506606	2.623717
	2.505646	2.621477
	2.505326	2.618917
	2.501486	2.615078
	2.500526	2.611238
	2.498926	2.608038
	2.496366	2.604198
	2.494126	2.601959
	2.494126	2.600359
	2.492207	2.597479
	2.493487	2.595559
	2.494446	2.592679
	2.494446	2.587880
	2.494766	2.598439
	2.493806	2.609638
	2.493806	2.657315
	2.493487	2.604838
	2.491567	2.657315
	2.489647	2.713311
	2.487727	2.726750
	2.487087	2.856340
	2.486767	2.757467
	2.488047	2.806744
	2.491247	2.712671
	2.498606	2.819223
	2.505326	2.579560
	2.520045	2.548523
	2.528364	2.545323
	2.544363	2.538603
	2.559082	2.585000
	2.567721	2.540523
	2.583080	2.549162
	2.594919	2.521964
	2.604838	2.529964
	2.659554	2.494126
	2.648035	2.481647
	2.617957	2.488367
	2.617638	2.482927
	2.615718	2.507246
	2.614438	2.490927
	2.610598	2.498606
	2.607078	2.496686
	2.600359	2.496046
	2.598119	2.501806
	2.587880	2.512045
	2.581160	2.528364
	2.572201	2.535403
	2.563561	2.561322
	2.552362	2.568361
	2.543403	2.582120
	2.537643	2.582760
	2.529004	2.584040
	2.524204	2.585960
	2.518445	2.584040
	2.516205	2.585000
	2.514605	2.581800
	2.515565	2.587880
	2.516525	2.582760
	2.518765	2.585640
	2.518125	2.585000
	2.518765	2.585960
	2.516205	2.587880
	2.513965	2.591079
	2.511405	2.592359
	2.505326	2.591719
	2.501486	2.593639
	2.497966	2.584040
	2.492207	2.578920
	2.489647	2.564841
	2.486447	2.552042
	2.485487	2.540843
	2.485487	2.532524
	2.486447	2.543403
	2.490287	2.533484
	2.495726	2.555562
	2.502446	2.548203
	2.513005	2.553962
	2.524844	2.577000
	2.538923	2.501486
	2.548203	2.503406
	2.563241	2.483247
	2.577640	2.503086
	2.591399	2.474288
	2.604518	2.468208
	2.610918	2.454129
	2.619877	2.453489
	2.628517	2.453489
	2.632356	2.440050
	2.634276	2.442610
	2.636836	2.444530
	2.639716	2.463729
	2.638436	2.469168
	2.636196	2.481327
	2.630117	2.494446
	2.624997	2.510445
	2.615718	2.529964
	2.608998	2.533804
	2.591719	2.546603
	2.577640	2.559402
	2.568361	2.568361
	2.555562	2.570281
	2.545643	2.573801
	2.537323	2.575721
	2.530924	2.575081
	2.530284	2.577000
	2.532204	2.568681
	2.534764	2.565481
	2.540523	2.561642
	2.545003	2.557802
	2.549162	2.551402
	2.549802	2.548523
	2.553322	2.543403
	2.551082	2.540523
	2.547563	2.540203
	2.544043	2.534764
	2.538283	2.534764
	2.533484	2.535403
	2.530604	2.538283
	2.528684	2.542443
	2.526764	2.544683
	2.529324	2.553962
	2.530284	2.562601
	2.532204	2.569321
	2.532524	2.574441
	2.532204	2.577960
	2.529964	2.579560
	2.524844	2.579880
	2.518765	2.575081
	2.510445	2.570921
	2.504686	2.565801
	2.495406	2.561642
	2.487087	2.560042
	2.478768	2.559402
	2.475248	2.561642
	2.468848	2.568361
	2.463729	2.576041
	2.460529	2.585000
	2.455409	2.595239
	2.454449	2.606438
	2.450930	2.612838
	2.447090	2.619877
	2.444210	2.621157
	2.440370	2.621477
	2.439090	2.618597
	2.439090	2.612518
	2.435891	2.603239
	2.438770	2.593639
	2.441650	2.582760
	2.446450	2.572521
	2.454449	2.561642
	2.462129	2.552682
	2.474608	2.547883
	2.484847	2.544043
	2.490927	2.542123
	2.501486	2.542443
	2.510445	2.544363
	2.516525	2.546923
	2.520365	2.548523
	2.527404	2.547883
	2.522284	2.546923
	2.521005	2.544363
	2.515885	2.542443
	2.511085	2.537323
	2.506926	2.532524
	2.500526	2.527724
	2.493167	2.525164
	2.487727	2.523244
	2.493167	2.522924
	2.477168	2.525804
	2.472368	2.529004
	2.468528	2.535083
	2.465009	2.540523
	2.463089	2.545643
	2.462769	2.550122
	2.463729	2.552042
	2.466928	2.551722
	2.474608	2.551082
	2.479088	2.547883
	2.491247	2.544683
	2.494126	2.540203
	2.504046	2.535083
	2.515565	2.532204
	2.525164	2.530604
	2.529964	2.532204
	2.538923	2.537003
	2.545643	2.543083
	2.550122	2.550442
	2.556202	2.559722
	2.555882	2.568041
	2.560042	2.573481
	2.567721	2.578920
	2.588840	2.580520
	2.600359	2.580840
	2.646115	2.579560
	2.613478	2.575081
	2.676513	2.569961
	2.715550	2.565801
	2.729629	2.559402
	2.834262	2.554922
	2.753308	2.550762
	2.877779	2.548203
	2.775066	2.545963
	2.695392	2.543723
	2.649955	2.542763
	2.640036	2.539883
	2.664354	2.536043
	2.658915	2.531564
	2.665314	2.527084
	2.661474	2.521644
	2.693792	2.517165
	2.666594	2.510445
	2.638756	2.507246
	2.635236	2.504046
	2.631077	2.499246
	2.638756	2.497326
	2.631077	2.494766
	2.631397	2.491567
	2.622757	2.487727
	2.632996	2.479088
	2.618277	2.472368
	2.607078	2.462449
	2.607398	2.452849
	2.609958	2.440690
	2.620837	2.430451
	2.621477	2.419572
	2.627877	2.412212
	2.625637	2.406773
	2.632996	2.401333
	2.624997	2.399093
	2.615078	2.397173
	2.610918	2.401013
	2.602279	2.399413
	2.600359	2.400373
	2.590119	2.399413
	2.581480	2.400373
	2.565481	2.400693
	2.558762	2.402293
	2.546283	2.404213
	2.529324	2.407093
	2.520045	2.416052
	2.508205	2.421172
	2.500526	2.431411
	2.493167	2.442290
	2.485487	2.453169
	2.475248	2.460529
	2.470128	2.470448
	2.462769	2.479408
	2.456369	2.486127
	2.449330	2.493806
	2.446770	2.492207
	2.460209	2.494126
	2.454769	2.493806
	2.476848	2.492847
	2.459889	2.492847
	2.463409	2.492207
	2.463089	2.494446
	2.433651	2.497966
	2.444530	2.504046
	2.425651	2.509165
	2.436211	2.515885
	2.432371	2.523564
	2.421492	2.530924
	2.417012	2.538283
	2.418612	2.544683
	2.416372	2.550442
	2.406773	2.554602
	2.408373	2.565161
	2.407733	2.564521
	2.415732	2.566121
	2.415732	2.569001
	2.414772	2.571881
	2.415412	2.573801
	2.419892	2.578280
	2.425011	2.582760
	2.428531	2.587880
	2.435571	2.593959
	2.439090	2.598119
	2.449330	2.602919
	2.456049	2.607398
	2.464369	2.610918
	2.470448	2.614438
	2.476208	2.616998
	2.483887	2.617638
	2.490287	2.619557
	2.495406	2.621157
	2.496686	2.619557
	2.503086	2.618917
	2.505006	2.619557
	2.505326	2.619557
	2.504686	2.622117
	2.504686	2.622117
	2.505006	2.624997
	2.512045	2.628837
	2.505966	2.657315
	2.506606	2.633636
	2.511085	2.635556
	2.514285	2.637796
	2.518445	2.638116
	2.524844	2.638436
	2.533164	2.636516
	2.541163	2.634596
	2.562601	2.632036
	2.553642	2.633636
	2.561962	2.620517
	2.569321	2.613158
	2.574761	2.605798
	2.578280	2.597159
	2.583080	2.587880
	2.586280	2.580200
	2.587880	2.571241
	2.595559	2.561642
	2.589160	2.549802
	2.629477	2.541163
	2.585960	2.531244
	2.582120	2.523244
	2.572521	2.514925
	2.573161	2.506926
	2.566121	2.499566
	2.559722	2.492207
	2.574761	2.484847
	2.549162	2.476208
	2.545643	2.468528
	2.541163	2.460209
	2.539563	2.450610
	2.538923	2.438131
	2.538603	2.431731
	2.539243	2.422452
	2.538283	2.413172
	2.540203	2.405493
	2.542443	2.398453
	2.542443	2.394614
	2.540523	2.389494
	2.539883	2.387574
	2.539563	2.389494
	2.535403	2.390134
	2.533804	2.393014
	2.529644	2.395894
	2.525484	2.401973
	2.519725	2.406773
	2.514285	2.413172
	2.512685	2.418612
	2.509805	2.423732
	2.507565	2.429171
	2.507246	2.433971
	2.507885	2.438450
	2.507885	2.442610
	2.509805	2.448050
	2.511085	2.454129
	2.513965	2.461169
	2.515565	2.467568
	2.517805	2.474608
	2.518125	2.482607
	2.520365	2.489647
	2.519405	2.498926
	2.518445	2.506286
	2.517485	2.514605
	2.513965	2.522924
	2.510445	2.532204
	2.505326	2.540203
	2.500846	2.549162
	2.497326	2.558442
	2.492207	2.568681
	2.486127	2.577640
	2.482927	2.587560
	2.480047	2.595879
	2.478128	2.603239
	2.478768	2.610598
	2.479728	2.614118
	2.482927	2.616678
	2.485807	2.616678
	2.488047	2.615718
	2.490607	2.612198
	2.493806	2.608358
	2.498606	2.603559
	2.502766	2.600679
	2.504046	2.595239
	2.507246	2.591399
	2.511085	2.588200
	2.516205	2.586600
	2.521644	2.585000
	2.526444	2.583400
	2.535083	2.583400
	2.543083	2.583080
	2.551402	2.581160
	2.557482	2.577000
	2.564521	2.574121
	2.572521	2.570601
	2.575721	2.565161
	2.580200	2.556842
	2.580520	2.549802
	2.580840	2.540843
	2.579240	2.533164
	2.576360	2.524844
	2.571881	2.518125
	2.569001	2.511405
	2.566441	2.505326
	2.562921	2.499246
	2.560362	2.493487
	2.557802	2.488367
	2.557162	2.482607
	2.556202	2.479408
	2.553962	2.471728
	2.551082	2.467568
	2.549482	2.463089
	2.547243	2.458609
	2.541483	2.457969
	2.535723	2.456049
	2.529324	2.457649
	2.522604	2.458929
	2.518125	2.472048
	2.512045	2.466608
	2.506286	2.470448
	2.502766	2.474928
	2.497006	2.478128
	2.496686	2.481647
	2.493806	2.483567
	2.494126	2.484207
	2.491247	2.482607
	2.490287	2.482287
	2.489647	2.476848
	2.488687	2.474288
	2.486127	2.470768
	2.482927	2.464689
	2.482607	2.464689
	2.481327	2.461489
	2.480687	2.461489
	2.480367	2.461809
	2.479408	2.465009
	2.479408	2.468528
	2.479408	2.473008
	2.479728	2.478128
	2.479728	2.484207
	2.480047	2.490287
	2.480687	2.494766
	2.481327	2.498926
	2.480047	2.502766
	2.479088	2.503406
	2.479088	2.505006
	2.478128	2.504366
	2.476848	2.501486
	2.477808	2.502766
	2.478448	2.502126
	2.481007	2.502446
	2.480367	2.505326
	2.482927	2.506286
	2.486127	2.509485
	2.487407	2.511725
	2.487727	2.513325
	2.488367	2.514925
	2.488687	2.513005
	2.487407	2.512685
	2.484847	2.512045
	2.482607	2.511405
	2.480367	2.513325
	2.479728	2.516845
	2.475568	2.521324
	2.473968	2.529324
	2.471408	2.541483
	2.471408	2.553322
	2.471088	2.564521
	2.472368	2.575721
	2.473008	2.587240
	2.472688	2.594279
	2.473968	2.598439
	2.473968	2.601959
	2.474928	2.600999
	2.476528	2.596839
	2.477488	2.591399
	2.479728	2.583720
	2.483567	2.577960
	2.488367	2.568361
	2.494766	2.561962
	2.503726	2.556202
	2.509805	2.552362
	2.520045	2.547883
	2.532204	2.545003
	2.544683	2.542763
	2.553962	2.540523
	2.560042	2.538283
	2.568361	2.535403
	2.575721	2.535083
	2.579560	2.536363
	2.582120	2.536683
	2.584040	2.539883
	2.585000	2.542443
	2.586280	2.544683
	2.587880	2.548203
	2.591719	2.549482
	2.594599	2.549802
	2.599719	2.713631
	2.604838	2.544043
	2.610278	2.538923
	2.614758	2.532204
	2.617638	2.524204
	2.619237	2.515885
	2.620517	2.509165
	2.619877	2.505326
	2.616998	2.502766
	2.615078	2.507246
	2.611558	2.508205
	2.607078	2.515885
	2.602599	2.524524
	2.600999	2.535723
	2.595879	2.546923
	2.591399	2.555882
	2.589160	2.562601
	2.585960	2.568041
	2.584360	2.571881
	2.582440	2.572201
	2.581480	2.569641
	2.578280	2.566121
	2.576360	2.562282
	2.573161	2.556522
	2.571241	2.550442
	2.566761	2.546603
	2.564201	2.544363
	2.568041	2.547563
	2.560042	2.542123
	2.558442	2.543403
	2.558442	2.545323
	2.559082	2.550442
	2.561322	2.553322
	2.561642	2.556842
	2.565481	2.561322
	2.568361	2.564841
	2.572841	2.567081
	2.575401	2.569321
	2.577640	2.570281
	2.581480	2.569001
	2.585000	2.564841
	2.587560	2.564201
	2.589160	2.559402
	2.590439	2.554282
	2.590759	2.548523
	2.589160	2.539563
	2.588840	2.535083
	2.585960	2.526764
	2.584040	2.521964
	2.581160	2.517805
	2.576680	2.516845
	2.572521	2.520045
	2.567721	2.526124
	2.565481	2.535723
	2.559082	2.547883
	2.553002	2.561002
	2.546283	2.573801
	2.537003	2.587240
	2.531244	2.599079
	2.523564	2.609958
	2.515885	2.619877
	2.506926	2.629477
	2.499246	2.639076
	2.495726	2.655715
	2.489647	2.664034
	2.485167	2.678753
	2.482927	2.692512
	2.481647	2.707231
	2.481647	2.721630
	2.482607	2.732829
	2.484847	2.741469
	2.488047	2.745628
	2.489327	2.746588
	2.490927	2.741469
	2.491567	2.733149
	2.490607	2.722910
	2.488367	2.708191
	2.486447	2.693792
	2.483567	2.680993
	2.482287	2.668514
	2.481647	2.696352
	2.480687	2.652195
	2.481967	2.649635
	2.483887	2.648995
	2.489647	2.649955
	2.493487	2.652835
	2.497966	2.654755
	2.500526	2.656675
	2.504686	2.655715
	2.507565	2.656035
	2.509165	2.648995
	2.509165	2.642916
	2.508845	2.636196
	2.507885	2.629797
	2.505646	2.623717
	2.505006	2.618597
	2.505326	2.613478
	2.506286	2.610598
	2.510445	2.607398
	2.514925	2.601959
	2.521644	2.596519
	2.529004	2.587880
	2.536683	2.577640
	2.545643	2.564841
	2.556202	2.549802
	2.565801	2.533484
	2.573801	2.518125
	2.578920	2.503406
	2.584680	2.490287
	2.589800	2.481327
	2.593639	2.475568
	2.598439	2.472688
	2.600359	2.474928
	2.605798	2.479088
	2.609958	2.484207
	2.613478	2.491567
	2.616678	2.496686
	2.618597	2.501166
	2.618277	2.503086
	2.616678	2.503086
	2.612198	2.500526
	2.603559	2.497646
	2.596519	2.496686
	2.585320	2.497006
	2.568041	2.499886
	2.560362	2.502766
	2.537963	2.509805
	2.529004	2.517165
	2.517485	2.523244
	2.504046	2.530284
	2.498926	2.535723
	2.494446	2.536363
	2.491887	2.536363
	2.488687	2.533804
	2.486447	2.529324
	2.483247	2.521644
	2.481647	2.513965
	2.475568	2.508845
	2.470448	2.502126
	2.462449	2.498926
	2.455089	2.497646
	2.450290	2.500206
	2.442930	2.505646
	2.439090	2.511405
	2.435571	2.519085
	2.435571	2.529004
	2.435891	2.538923
	2.438450	2.546923
	2.443250	2.552682
	2.449970	2.559402
	2.457009	2.563561
	2.461489	2.563881
	2.469168	2.562921
	2.477488	2.558762
	2.484847	2.551402
	2.490927	2.542123
	2.497646	2.532204
	2.502766	2.521005
	2.510125	2.509805
	2.515245	2.498286
	2.518765	2.487727
	2.522604	2.479088
	2.525164	2.474288
	2.524524	2.470128
	2.523884	2.469808
	2.522284	2.471728
	2.520365	2.474928
	2.516205	2.480687
	2.511085	2.487087
	2.505966	2.494766
	2.501166	2.502766
	2.496046	2.507246
	2.493167	2.513005
	2.488687	2.517165
	2.486447	2.520045
	2.485487	2.521005
	2.484527	2.522604
	2.485167	2.522924
	2.492527	2.524204
	2.491567	2.525484
	2.495406	2.526764
	2.499886	2.528364
	2.505006	2.529644
	2.511405	2.531564
	2.516205	2.532204
	2.522284	2.531564
	2.524844	2.529964
	2.528684	2.527084
	2.529004	2.522604
	2.529004	2.517165
	2.529644	2.511725
	2.528684	2.507565
	2.527404	2.504046
	2.526764	2.502446
	2.526764	2.504366
	2.527084	2.510445
	2.529644	2.515565
	2.530604	2.526444
	2.532844	2.537963
	2.535083	2.550122
	2.537003	2.562282
	2.538923	2.572201
	2.539563	2.581480
	2.539243	2.587880
	2.536363	2.591719
	2.533804	2.592999
	2.529004	2.594279
	2.525484	2.593959
	2.521005	2.593959
	2.516525	2.593959
	2.516845	2.594599
	2.514605	2.597799
	2.514925	2.604198
	2.515565	2.626597
	2.516205	2.620197
	2.516525	2.631716
	2.516845	2.644196
	2.517165	2.652835
	2.515565	2.664674
	2.513645	2.675873
	2.511085	2.683873
	2.508525	2.688672
	2.507565	2.693472
	2.507885	2.692512
	2.507565	2.688032
	2.509805	2.681633
	2.511725	2.673313
	2.515885	2.661474
	2.521644	2.649955
	2.527724	2.637796
	2.531564	2.624037
	2.540523	2.614758
	2.548203	2.597159
	2.556202	2.582760
	2.561962	2.570601
	2.566761	2.556202
	2.570281	2.542443
	2.579560	2.531884
	2.583720	2.519725
	2.585960	2.509485
	2.588840	2.501166
	2.589160	2.491887
	2.588200	2.485167
	2.584680	2.479088
	2.581480	2.478448
	2.577640	2.475248
	2.570921	2.480047
	2.563881	2.484207
	2.558122	2.491247
	2.553642	2.499566
	2.546923	2.505326
	2.543403	2.511725
	2.540203	2.518445
	2.538923	2.522604
	2.539883	2.525164
	2.541803	2.526444
	2.544683	2.525484
	2.550122	2.525164
	2.554282	2.523244
	2.563241	2.521964
	2.561962	2.520685
	2.565801	2.518765
	2.567401	2.520365
	2.569001	2.526764
	2.570601	2.525484
	2.570921	2.538603
	2.571241	2.569961
	2.576041	2.545323
	2.573161	2.533164
	2.574121	2.608358
	2.576041	2.583720
	2.577320	2.596839
	2.580840	2.560362
	2.585320	2.562601
	2.587880	2.515885
	2.591719	2.539243
	2.595879	2.501166
	2.598119	2.492527
	2.600359	2.518765
	2.600999	2.489327
	2.599399	2.483887
	2.596519	2.480687
	2.590759	2.480047
	2.582440	2.469808
	2.574761	2.509165
	2.560362	2.474608
	2.544043	2.480047
	2.525164	2.500846
	2.505966	2.501486
	2.492527	2.511725
	2.473328	2.521964
	2.454449	2.534444
	2.439090	2.541803
	2.425331	2.559402
	2.419572	2.560682
	2.411892	2.567081
	2.410293	2.578600
	2.410932	2.576041
	2.413812	2.576041
	2.418292	2.574761
	2.425651	2.572521
	2.434291	2.566761
	2.443570	2.568681
	2.453169	2.559402
	2.461169	2.555882
	2.471088	2.557162
	2.481967	2.551402
	2.492527	2.548203
	2.501166	2.546283
	2.506926	2.544683
	2.513325	2.541483
	2.521005	2.545963
	2.527724	2.542763
	2.531884	2.547243
	2.535723	2.552042
	2.538923	2.554282
	2.541483	2.560042
	2.542443	2.565801
	2.542763	2.570921
	2.541163	2.577320
	2.537643	2.587880
	2.535403	2.589800
	2.531564	2.597479
	2.529324	2.604198
	2.525484	2.611558
	2.521964	2.619557
	2.518445	2.627237
	2.516845	2.636516
	2.515245	2.642916
	2.513645	2.683233
	2.511725	2.656035
	2.510765	2.659554
	2.509805	2.660834
	2.509485	2.658275
	2.509165	2.655075
	2.509485	2.648995
	2.510765	2.640676
	2.513325	2.630757
	2.665314	2.622117
	2.522604	2.607078
	2.529964	2.594599
	2.538603	2.583720
	2.549162	2.572201
	2.555562	2.563241
	2.566761	2.554602
	2.577960	2.549802
	2.588520	2.547243
	2.627877	2.547883
	2.600999	2.547883
	2.604838	2.553322
	2.606438	2.560042
	2.602919	2.567401
	2.595239	2.578280
	2.589480	2.587560
	2.576041	2.594279
	2.562921	2.601959
	2.574121	2.605798
	2.531244	2.604518
	2.519725	2.604198
	2.505646	2.599079
	2.495086	2.593319
	2.484847	2.586280
	2.479728	2.577640
	2.477168	2.568041
	2.473648	2.559082
	2.481007	2.550762
	2.472368	2.538923
	2.472368	2.532204
	2.472688	2.521324
	2.476208	2.512685
	2.476848	2.505646
	2.486767	2.497966
	2.491247	2.491887
	2.501806	2.486767
	2.514285	2.483887
	2.527724	2.481007
	2.542763	2.479408
	2.552682	2.479408
	2.564841	2.480687
	2.576041	2.481647
	2.583080	2.485487
	2.586280	2.488687
	2.587880	2.491887
	2.588200	2.498926
	2.586280	2.499886
	2.584040	2.504686
	2.581480	2.508205
	2.579880	2.510125
	2.578920	2.513965
	2.578920	2.515245
	2.579560	2.515565
	2.580840	2.517485
	2.582440	2.520365
	2.585000	2.513645
	2.586280	2.509165
	2.588840	2.505326
	2.588840	2.502126
	2.590439	2.496046
	2.590119	2.491247
	2.589800	2.488367
	2.591079	2.487727
	2.593319	2.487727
	2.594279	2.490287
	2.597799	2.495726
	2.600359	2.502126
	2.602279	2.509165
	2.603559	2.519085
	2.602919	2.528044
	2.599079	2.537003
	2.608358	2.546283
	2.587880	2.566761
	2.580200	2.562921
	2.575081	2.573801
	2.567401	2.584040
	2.561322	2.592359
	2.554602	2.605158
	2.551402	2.617638
	2.548842	2.629477
	2.552042	2.639396
	2.549482	2.649635
	2.551402	2.657315
	2.550122	2.655715
	2.548523	2.653475
	2.545643	2.648675
	2.541163	2.640996
	2.536043	2.631716
	2.529644	2.620837
	2.529004	2.608678
	2.518765	2.598439
	2.513325	2.642596
	2.505326	2.576041
	2.501166	2.567721
	2.497966	2.559082
	2.494766	2.553642
	2.491247	2.550442
	2.490607	2.548203
	2.493167	2.548842
	2.495406	2.551402
	2.501486	2.557482
	2.511085	2.562921
	2.523884	2.570601
	2.539563	2.578600
	2.553002	2.585000
	2.593319	2.588840
	2.593639	2.590759
	2.613798	2.589800
	2.623397	2.585320
	2.672993	2.580520
	2.749468	2.572841
	2.736989	2.567081
	2.669794	2.562921
	2.683233	2.558762
	2.668514	2.561002
	2.664994	2.563241
	2.650595	2.573161
	2.643236	2.585320
	2.646435	2.600359
	2.647395	2.615078
	2.632356	2.632036
	2.595879	2.649635
	2.579560	2.662754
	2.562282	2.673313
	2.543403	2.680673
	2.532204	2.683233
	2.507885	2.681953
	2.499246	2.674913
	2.497966	2.667234
	2.490607	2.653795
	2.476528	2.639076
	2.473008	2.621797
	2.468528	2.604198
	2.467248	2.584680
	2.473968	2.566121
	2.465329	2.549802
	2.468848	2.532524
	2.473648	2.515565
	2.476848	2.501486
	2.476528	2.488367
	2.485167	2.477168
	2.494446	2.469808
	2.502126	2.462449
	2.557482	2.454129
	2.523884	2.449010
	2.538923	2.441330
	2.554282	2.437171
	2.567721	2.434611
	2.573481	2.433651
	2.583720	2.433331
	2.592999	2.438770
	2.601959	2.445170
	2.610278	2.454449
	2.615398	2.467568
	2.630437	2.480367
	2.629477	2.493167
	2.635236	2.505646
	2.634916	2.516205
	2.635876	2.525804
	2.634276	2.531564
	2.628517	2.536043
	2.621157	2.540203
	2.614758	2.544363
	2.601319	2.551082
	2.588200	2.560362
	2.576360	2.572521
	2.564841	2.586600
	2.557162	2.602599
	2.551082	2.616998
	2.548203	2.630757
	2.547883	2.640356
	2.552042	2.644516
	2.553002	2.643876
	2.558442	2.638116
	2.564201	2.629797
	2.561962	2.621797
	2.569001	2.613478
	2.567721	2.608038
	2.568041	2.607078
	2.565801	2.610598
	2.562601	2.619557
	2.559722	2.632036
	2.556842	2.645156
	2.554602	2.656995
	2.553962	2.663714
	2.556202	2.670114
	2.558762	2.667874
	2.561962	2.658275
	2.581480	2.644196
	2.572201	2.626917
	2.576360	2.608038
	2.578920	2.589800
	2.580840	2.575721
	2.578920	2.563561
	2.579560	2.561002
	2.576360	2.563241
	2.573481	2.567401
	2.572841	2.577320
	2.571241	2.675873
	2.572841	2.595239
	2.576360	2.600999
	2.580520	2.600039
	2.583720	2.595559
	2.588520	2.585000
	2.590439	2.573481
	2.594599	2.562921
	2.594279	2.547563
	2.593959	2.537643
	2.590759	2.525164
	2.586920	2.519405
	2.580200	2.518445
	2.573801	2.520685
	2.569641	2.525484
	2.563881	2.530284
	2.557162	2.535403
	2.552042	2.538923
	2.546923	2.538603
	2.545643	2.536363
	2.543083	2.530284
	2.540523	2.522284
	2.540203	2.513005
	2.538923	2.503406
	2.540203	2.495726
	2.540523	2.489327
	2.539243	2.484847
	2.539563	2.482287
	2.538923	2.482607
	2.538603	2.482607
	2.540203	2.482607
	2.540843	2.481007
	2.542443	2.480687
	2.542123	2.476528
	2.542443	2.471408
	2.542763	2.467248
	2.549482	2.460209
	2.542123	2.454449
	2.540523	2.451250
	2.538923	2.449970
	2.535403	2.453169
	2.531564	2.459249
	2.526764	2.469168
	2.523564	2.482287
	2.518765	2.498286
	2.515885	2.512045
	2.510125	2.527724
	2.507885	2.542443
	2.505646	2.553002
	2.505006	2.560362
	2.502446	2.565801
	2.501806	2.567721
	2.500846	2.566441
	2.500846	2.565161
	2.499886	2.557802
	2.499246	2.553642
	2.498286	2.549802
	2.499566	2.546603
	2.497966	2.545003
	2.497646	2.545963
	2.498606	2.547243
	2.501806	2.551722
	2.506606	2.556842
	2.509805	2.562282
	2.515565	2.568361
	2.521324	2.574441
	2.529964	2.579240
	2.536043	2.582440
	2.539563	2.586600
	2.543723	2.590119
	2.548203	2.593319
	2.547243	2.597799
	2.545963	2.603239
	2.543723	2.608038
	2.539563	2.615718
	2.536043	2.624677
	2.529964	2.635236
	2.523884	2.646115
	2.523244	2.658275
	2.519725	2.671714
	2.513965	2.686113
	2.512365	2.695712
	2.509165	2.708191
	2.505646	2.719710
	2.503726	2.727070
	2.498926	2.733469
	2.495406	2.737629
	2.490607	2.738909
	2.489327	2.737949
	2.485167	2.733789
	2.483247	2.728349
	2.480367	2.720670
	2.479088	2.711711
	2.477168	2.703071
	2.476528	2.692512
	2.476208	2.681633
	2.474288	2.672034
	2.473968	2.664034
	2.473328	2.687072
	2.473008	2.649315
	2.472368	2.644836
	2.471408	2.641956
	2.471408	2.642916
	2.470448	2.643236
	2.471088	2.646755
	2.471088	2.650915
	2.470768	2.654755
	2.472048	2.664674
	2.472688	2.661794
	2.472368	2.662754
	2.473968	2.662114
	2.477168	2.660834
	2.475568	2.657315
	2.478448	2.652835
	2.480047	2.648035
	2.484847	2.639716
	2.489007	2.639396
	2.493167	2.623717
	2.499566	2.613798
	2.507246	2.602279
	2.515565	2.589800
	2.521964	2.574761
	2.526764	2.561962
	2.533804	2.547563
	2.540843	2.535083
	2.544363	2.524524
	2.549482	2.512365
	2.551402	2.505326
	2.555882	2.499886
	2.557162	2.496366
	2.559402	2.499886
	2.561002	2.505646
	2.560362	2.513645
	2.560682	2.523884
	2.561322	2.537003
	2.558762	2.546923
	2.557802	2.557162
	2.556202	2.568041
	2.554602	2.574761
	2.551722	2.577960
	2.549162	2.581480
	2.546603	2.582440
	2.543723	2.580200
	2.541163	2.578280
	2.541163	2.573161
	2.540523	2.567081
	2.540523	2.563561
	2.542443	2.558122
	2.545643	2.554602
	2.549802	2.549802
	2.556842	2.545643
	2.563241	2.541163
	2.567721	2.537323
	2.574761	2.531564
	2.580520	2.527084
	2.585640	2.520365
	2.587560	2.513325
	2.589480	2.507246
	2.590439	2.500206
	2.590759	2.494126
	2.588520	2.489007
	2.586920	2.485167
	2.584040	2.483247
	2.582120	2.481007
	2.578920	2.481967
	2.577640	2.482607
	2.576041	2.486127
	2.576041	2.490607
	2.574441	2.496046
	2.575401	2.540843
	2.570281	2.507885
	2.568041	2.513965
	2.563561	2.519085
	2.559402	2.522924
	2.554602	2.523244
	2.548842	2.523884
	2.545323	2.521644
	2.540523	2.520045
	2.536683	2.522604
	2.530604	2.508525
	2.527724	2.502446
	2.525164	2.497966
	2.522604	2.490927
	2.519085	2.486447
	2.514605	2.480687
	2.513325	2.477808
	2.511085	2.475248
	2.508525	2.474288
	2.505326	2.471088
	2.504686	2.471088
	2.504366	2.470768
	2.503086	2.471088
	2.501166	2.470448
	2.498926	2.472368
	2.497006	2.472688
	2.493806	2.474928
	2.494446	2.478448
	2.488367	2.481327
	2.483887	2.486767
	2.480047	2.494446
	2.474608	2.502766
	2.470768	2.510765
	2.467888	2.520365
	2.463089	2.528364
	2.460209	2.537963
	2.458289	2.549162
	2.455409	2.556522
	2.454769	2.564201
	2.454129	2.570601
	2.453489	2.574761
	2.454449	2.578600
	2.454769	2.581480
	2.457009	2.585320
	2.457969	2.587880
	2.462769	2.593959
	2.463409	2.600039
	2.465968	2.606118
	2.467888	2.613798
	2.471088	2.621797
	2.472688	2.630757
	2.475248	2.639076
	2.475568	2.644516
	2.478448	2.649955
	2.479088	2.655395
	2.481327	2.656035
	2.481327	2.656995
	2.482607	2.656035
	2.483247	2.652515
	2.484847	2.648675
	2.486447	2.645795
	2.488367	2.640356
	2.490927	2.638116
	2.493806	2.636516
	2.497006	2.636836
	2.499566	2.641316
	2.500206	2.648355
	2.501486	2.655715
	2.502126	2.665954
	2.501166	2.678433
	2.500526	2.691552
	2.499886	2.705311
	2.497966	2.718430
	2.495406	2.731229
	2.493167	2.741788
	2.489967	2.750428
	2.484207	2.758107
	2.483567	2.763227
	2.480047	2.765147
	2.475248	2.766107
	2.472368	2.763227
	2.469808	2.758427
	2.467568	2.750108
	2.465649	2.738909
	2.463729	2.724510
	2.463089	2.704031
	2.464049	2.688032
	2.465009	2.667234
	2.467888	2.645156
	2.469808	2.625637
	2.499566	2.605478
	2.474928	2.585960
	2.479088	2.569641
	2.481647	2.554602
	2.485167	2.541163
	2.488687	2.529964
	2.492207	2.523884
	2.495086	2.514605
	2.498606	2.507565
	2.502446	2.501486
	2.505966	2.497006
	2.507565	2.492207
	2.509805	2.490287
	2.512685	2.487727
	2.514285	2.487727
	2.516525	2.488687
	2.514605	2.489647
	2.515885	2.497326
	2.515885	2.495086
	2.515565	2.496366
	2.515885	2.497006
	2.516205	2.496046
	2.519085	2.492847
	2.519725	2.489967
	2.523564	2.483567
	2.528364	2.474928
	2.532204	2.466288
	2.537003	2.456049
	2.542123	2.446130
	2.549162	2.436211
	2.554282	2.427571
	2.558122	2.420532
	2.563241	2.415092
	2.567081	2.411572
	2.568041	2.409973
	2.577960	2.409653
	2.571241	2.409653
	2.571561	2.411572
	2.570921	2.414132
	2.570921	2.417012
	2.569961	2.418612
	2.566761	2.422772
	2.564201	2.426291
	2.561962	2.430771
	2.557162	2.434611
	2.554922	2.438131
	2.549482	2.441970
	2.544363	2.444850
	2.539883	2.447090
	2.534444	2.448690
	2.532844	2.449970
	2.531564	2.452209
	2.528044	2.459249
	2.528044	2.459569
	2.528364	2.463729
	2.528364	2.471408
	2.529004	2.478768
	2.531244	2.488367
	2.532844	2.497966
	2.535403	2.508205
	2.536043	2.517805
	2.538283	2.527404
	2.541483	2.534124
	2.543083	2.540203
	2.543723	2.544683
	2.544683	2.548523
	2.544043	2.553642
	2.542443	2.557802
	2.540843	2.561322
	2.536363	2.565801
	2.532204	2.570921
	2.524204	2.579240
	2.515565	2.585640
	2.505326	2.592999
	2.495086	2.600999
	2.487407	2.608358
	2.478128	2.614438
	2.470128	2.618597
	2.461169	2.622117
	2.455089	2.623077
	2.451890	2.624677
	2.446770	2.626277
	2.442610	2.628197
	2.441010	2.628837
	2.439090	2.631716
	2.437491	2.635236
	2.439410	2.638116
	2.440690	2.642916
	2.443250	2.647715
	2.448050	2.651555
	2.451570	2.655075
	2.459569	2.657635
	2.468208	2.659874
	2.477168	2.663394
	2.482607	2.667554
	2.489967	2.673953
	2.494766	2.682273
	2.498926	2.689952
	2.498286	2.696672
	2.497006	2.704991
	2.493806	2.709471
	2.489327	2.713631
	2.484207	2.713631
	2.479408	2.713311
	2.477168	2.708831
	2.473008	2.703711
	2.473008	2.696032
	2.473968	2.686752
	2.478128	2.676193
	2.480687	2.665314
	2.487727	2.653155
	2.496366	2.640676
	2.505966	2.627557
	2.513325	2.613798
	2.519405	2.600679
	2.526764	2.585960
	2.534124	2.573801
	2.540523	2.559402
	2.546283	2.547563
	2.547883	2.537003
	2.551722	2.527724
	2.554282	2.519725
	2.557162	2.514605
	2.561642	2.531884
	2.580520	2.509165
	2.567721	2.510125
	2.573801	2.509805
	2.579240	2.511085
	2.585000	2.516525
	2.588520	2.519405
	2.594599	2.524204
	2.598119	2.527724
	2.600999	2.561642
	2.601959	2.531884
	2.597799	2.535083
	2.592679	2.532204
	2.585960	2.531244
	2.578600	2.531244
	2.569001	2.531244
	2.562601	2.530604
	2.553642	2.531244
	2.546923	2.533804
	2.542763	2.533804
	2.538923	2.536363
	2.538283	2.539883
	2.538923	2.541803
	2.538283	2.543083
	2.543083	2.543723
	2.545003	2.545003
	2.547563	2.549802
	2.549802	2.558762
	2.548842	2.549162
	2.548203	2.594599
	2.545643	2.671394
	2.541163	2.676193
	2.534124	2.850261
	2.527404	2.742428
	2.519405	2.833302
	2.514925	2.739869
	2.509485	2.608358
	2.504686	2.577960
	2.500846	2.576360
	2.501166	2.616678
	2.500206	2.557482
	2.504046	2.614758
	2.508205	2.524844
	2.514605	2.517805
	2.522284	2.449650
	2.541803	2.444850
	2.560042	2.426611
	2.544683	2.433011
	2.552682	2.441650
	2.559402	2.433651
	2.564201	2.460529
	2.568681	2.429811
	2.571561	2.438770
	2.574441	2.412212
	2.577000	2.411252
	2.578280	2.405813
	2.580840	2.411892
	2.584680	2.420852
	2.588200	2.419572
	2.594599	2.447090
	2.599399	2.441010
	2.605478	2.462129
	2.612198	2.462449
	2.621157	2.479408
	2.628197	2.493487
	2.632996	2.511085
	2.640356	2.525164
	2.645156	2.526444
	2.648995	2.535723
	2.649955	2.526124
	2.649635	2.522604
	2.645475	2.508525
	2.641636	2.501486
	2.634916	2.495086
	2.627877	2.493167
	2.622437	2.493167
	2.611878	2.489647
	2.604518	2.494446
	2.594279	2.490927
	2.587560	2.495086
	2.581800	2.495086
	2.576680	2.501486
	2.572201	2.508205
	2.569321	2.515565
	2.566121	2.529964
	2.566441	2.531564
	2.563561	2.563241
	2.563241	2.565161
	2.564521	2.600999
	2.565161	2.583080
	2.568041	2.577960
	2.572521	2.577960
	2.576041	2.624997
	2.580200	2.604838
	2.582120	2.604198
	2.585320	2.615398
	2.589160	2.624037
	2.588840	2.629797
	2.692192	2.626917
	2.589800	2.628197
	2.586920	2.631077
	2.583720	2.637156
	2.580520	2.632996
	2.572201	2.629797
	2.571241	2.626597
	2.563241	2.625957
	2.556202	2.623077
	2.609638	2.617638
	2.537643	2.612198
	2.532524	2.664674
	2.523244	2.607078
	2.515565	2.601639
	2.508845	2.590759
	2.504046	2.586280
	2.502126	2.576680
	2.500526	2.567081
	2.504046	2.553962
	2.505326	2.540523
	2.508845	2.533164
	2.511085	2.524524
	2.517165	2.517805
	2.521324	2.513325
	2.522924	2.513965
	2.525164	2.514605
	2.526124	2.515885
	2.524524	2.518445
	2.523244	2.520365
	2.519405	2.523564
	2.515245	2.524204
	2.512365	2.523244
	2.507246	2.520685
	2.503406	2.517485
	2.497966	2.513325
	2.494766	2.508205
	2.491887	2.505326
	2.490607	2.501806
	2.485167	2.501166
	2.482607	2.501166
	2.480687	2.502766
	2.478768	2.505326
	2.478128	2.506606
	2.477488	2.507565
	2.476528	2.510445
	2.474928	2.509805
	2.473968	2.509485
	2.474288	2.508525
	2.472688	2.505966
	2.472368	2.506286
	2.473328	2.503726
	2.472368	2.503726
	2.473008	2.504686
	2.547563	2.506286
	2.476528	2.509805
	2.479088	2.513965
	2.484207	2.518125
	2.491247	2.524524
	2.499566	2.529964
	2.508205	2.534444
	2.513005	2.537643
	2.520365	2.540843
	2.537323	2.544363
	2.527404	2.544683
	2.528684	2.545643
	2.527404	2.545963
	2.523884	2.545643
	2.518125	2.543083
	2.509485	2.542123
	2.504686	2.540203
	2.499246	2.538923
	2.494446	2.538283
	2.488367	2.536363
	2.488047	2.541163
	2.488687	2.536043
	2.488687	2.537643
	2.490607	2.537963
	2.493167	2.537963
	2.495406	2.539243
	2.496366	2.541163
	2.496686	2.539883
	2.495726	2.538923
	2.494126	2.535403
	2.490927	2.532204
	2.486447	2.529964
	2.482287	2.526444
	2.483567	2.524524
	2.483247	2.524204
	2.485807	2.521964
	2.488047	2.524204
	2.490607	2.524524
	2.496046	2.527404
	2.502766	2.528364
	2.509805	2.529644
	2.517165	2.531244
	2.521324	2.533804
	2.526764	2.533804
	2.569961	2.531884
	2.537323	2.546603
	2.542443	2.529324
	2.546923	2.527724
	2.554922	2.526764
	2.563241	2.527084
	2.570601	2.528364
	2.580520	2.529964
	2.588200	2.532204
	2.603559	2.533804
	2.621797	2.537003
	2.615398	2.536683
	2.660834	2.538603
	2.775066	2.540203
	2.727710	2.539883
	2.814103	2.539243
	2.760987	2.539563
	2.887378	2.538603
	2.671714	2.536363
	2.613158	2.534764
	2.610598	2.532844
	2.592679	2.533164
	2.705311	2.532844
	2.633316	2.532844
	2.619237	2.533804
	2.605478	2.535083
	2.627877	2.537323
	2.580520	2.537963
	2.567721	2.538603
	2.567721	2.539883
	2.567081	2.538603
	2.598759	2.537323
	2.578920	2.535083
	2.578600	2.531244
	2.569001	2.527404
	2.577960	2.522924
	2.549162	2.519405
	2.541163	2.515565
	2.538603	2.518765
	2.540523	2.508525
	2.559722	2.504686
	2.550442	2.500526
	2.554602	2.498286
	2.552362	2.494446
	2.565481	2.487727
	2.552682	2.484207
	2.553322	2.479728
	2.557162	2.473968
	2.557482	2.468208
	2.568041	2.462449
	2.561002	2.457009
	2.561642	2.452849
	2.557162	2.449970
	2.562282	2.448370
	2.550762	2.448370
	2.547883	2.449970
	2.547563	2.455089
	2.545003	2.459249
	2.549482	2.464689
	2.542763	2.470128
	2.539563	2.475888
	2.531564	2.481647
	2.530604	2.487087
	2.519405	2.491567
	2.513005	2.495086
	2.507885	2.499566
	2.497006	2.501486
	2.500846	2.504686
	2.492207	2.509805
	2.512365	2.513325
	2.505646	2.517485
	2.491567	2.522924
	2.481967	2.528364
	2.476848	2.532844
	2.521324	2.537643
	2.503086	2.540843
	2.508205	2.545323
	2.496046	2.545003
	2.482607	2.552042
	2.476208	2.554602
	2.464049	2.557802
	2.463089	2.558762
	2.458289	2.560362
	2.465009	2.559402
	2.461489	2.559402
	2.465968	2.560042
	2.460529	2.560042
	2.461169	2.558442
	2.460529	2.556522
	2.461169	2.554922
	2.463729	2.554282
	2.465329	2.553002
	2.470768	2.552682
	2.471408	2.553642
	2.473968	2.553642
	2.472368	2.554282
	2.473968	2.555242
	2.472368	2.557482
	2.473008	2.558442
	2.471728	2.561642
	2.474288	2.562282
	2.477488	2.563881
	2.479088	2.567721
	2.482607	2.568361
	2.485167	2.570281
	2.486447	2.572521
	2.486767	2.571881
	2.495726	2.572201
	2.486447	2.570921
	2.497006	2.568361
	2.489007	2.564521
	2.489647	2.560682
	2.492207	2.554922
	2.498606	2.548203
	2.503406	2.542443
	2.507246	2.535723
	2.512365	2.530284
	2.518125	2.524844
	2.524524	2.519085
	2.528684	2.515245
	2.531564	2.512045
	2.534124	2.509805
	2.534764	2.509165
	2.534444	2.509165
	2.531884	2.509165
	2.529004	2.523564
	2.528364	2.509485
	2.525164	2.509485
	2.520685	2.510445
	2.516845	2.511405
	2.512365	2.512365
	2.509165	2.511085
	2.505966	2.512045
	2.504046	2.512685
	2.500206	2.513965
	2.498606	2.513645
	2.498286	2.513965
	2.497966	2.513645
	2.496686	2.513325
	2.494766	2.510765
	2.497006	2.509805
	2.494446	2.511725
	2.495086	2.504686
	2.491247	2.502766
	2.490287	2.501166
	2.488687	2.497966
	2.486767	2.495726
	2.486447	2.494446
	2.486767	2.492527
	2.488367	2.491567
	2.488687	2.490287
	2.490607	2.489007
	2.493167	2.488367
	2.495726	2.487087
	2.499246	2.485167
	2.504686	2.484207
	2.505006	2.481327
	2.508205	2.478768
	2.511085	2.477808
	2.513325	2.476528
	2.514285	2.474288
	2.515245	2.474928
	2.517165	2.474288
	2.517165	2.473968
	2.516845	2.473328
	2.516845	2.473328
	2.517165	2.475248
	2.515565	2.476848
	2.514285	2.478768
	2.514925	2.481007
	2.514605	2.487087
	2.513965	2.489007
	2.514925	2.494446
	2.514925	2.498606
	2.514605	2.504366
	2.514925	2.507246
	2.514605	2.511085
	2.513645	2.513005
	2.514285	2.514925
	2.513005	2.515245
	2.513645	2.514605
	2.513965	2.514285
	2.514925	2.513965
	2.518445	2.514605
	2.520365	2.514605
	2.524204	2.517165
	2.527404	2.520685
	2.531244	2.526124
	2.536363	2.531564
	2.538603	2.537003
	2.540203	2.543723
	2.541483	2.550122
	2.541803	2.556202
	2.539883	2.562282
	2.537643	2.565161
	2.536683	2.567081
	2.534764	2.569321
	2.535403	2.569961
	2.533164	2.572201
	2.532844	2.566121
	2.531564	2.565161
	2.532524	2.565161
	2.532204	2.566121
	2.532844	2.567721
	2.534124	2.571241
	2.533484	2.578600
	2.532204	2.582760
	2.531884	2.589800
	2.528684	2.594279
	2.527404	2.601639
	2.523884	2.607398
	2.519405	2.611558
	2.519405	2.614118
	2.513965	2.617318
	2.513965	2.619557
	2.514285	2.620197
	2.513965	2.620517
	2.516845	2.625637
	2.519085	2.626597
	2.522284	2.626597
	2.525804	2.628197
	2.529324	2.626597
	2.527404	2.623717
	2.534764	2.618917
	2.535083	2.612518
	2.534124	2.604838
	2.532844	2.596519
	2.532204	2.589160
	2.529964	2.581480
	2.529964	2.574121
	2.528044	2.569321
	2.527404	2.567401
	2.525804	2.565801
	2.524204	2.567721
	2.523884	2.569641
	2.522284	2.570921
	2.519085	2.573161
	2.514925	2.737629
	2.509805	2.571561
	2.505646	2.568041
	2.498606	2.563561
	2.489007	2.557162
	2.479408	2.549162
	2.471408	2.541163
	2.465009	2.531884
	2.456369	2.524844
	2.449010	2.519085
	2.442290	2.513325
	2.436531	2.512685
	2.433651	2.509165
	2.431091	2.510125
	2.429171	2.509485
	2.429811	2.511725
	2.427891	2.516205
	2.428531	2.517805
	2.430131	2.519405
	2.429811	2.522604
	2.427891	2.525804
	2.427891	2.530284
	2.426931	2.535403
	2.425971	2.541483
	2.426291	2.549162
	2.425651	2.558762
	2.428531	2.567401
	2.427891	2.576680
	2.429171	2.583080
	2.433011	2.589160
	2.436211	2.593639
	2.438770	2.595879
	2.442610	2.596519
	2.444850	2.596519
	2.448050	2.594279
	2.449330	2.591079
	2.450930	2.588200
	2.450930	2.588200
	2.450610	2.585640
	2.450290	2.584040
	2.450290	2.585320
	2.449650	2.583400
	2.448050	2.584360
	2.449010	2.586920
	2.448370	2.589160
	2.448050	2.589800
	2.448050	2.592359
	2.449010	2.595559
	2.452529	2.600679
	2.453489	2.604518
	2.458289	2.609638
	2.459249	2.615718
	2.464689	2.620197
	2.473328	2.624997
	2.479728	2.629157
	2.485167	2.631397
	2.489327	2.632356
	2.494126	2.631716
	2.497006	2.630117
	2.513005	2.628197
	2.497646	2.625637
	2.496686	2.623717
	2.493806	2.621157
	2.489327	2.620837
	2.484847	2.620837
	2.481647	2.622757
	2.479728	2.624997
	2.478448	2.628197
	2.475248	2.632036
	2.477168	2.636516
	2.477808	2.636836
	2.479088	2.637476
	2.482927	2.633956
	2.487407	2.628517
	2.491247	2.620517
	2.496046	2.611238
	2.499566	2.599079
	2.504366	2.585320
	2.511725	2.571561
	2.519085	2.558762
	2.526764	2.545643
	2.532844	2.535723
	2.540843	2.526124
	2.549482	2.519725
	2.556202	2.515245
	2.562601	2.512365
	2.568041	2.512685
	2.571881	2.511085
	2.574121	2.512365
	2.574441	2.514605
	2.573481	2.519405
	2.572521	2.524524
	2.569321	2.531564
	2.565481	2.536043
	2.562282	2.543083
	2.559722	2.551722
	2.557482	2.558762
	2.554922	2.564521
	2.553642	2.571561
	2.551082	2.576680
	2.549802	2.579240
	2.546603	2.580840
	2.545323	2.581480
	2.541483	2.577960
	2.539243	2.574761
	2.536683	2.570281
	2.533164	2.565161
	2.537003	2.561002
	2.523884	2.556842
	2.519085	2.554922
	2.516525	2.553322
	2.512365	2.553002
	2.508525	2.555882
	2.504366	2.558442
	2.500846	2.562601
	2.498286	2.566761
	2.495086	2.568361
	2.492207	2.570601
	2.489007	2.570921
	2.487087	2.569641
	2.485487	2.566761
	2.484527	2.562601
	2.483887	2.555242
	2.482927	2.549482
	2.482287	2.542763
	2.483567	2.537963
	2.485487	2.532844
	2.485807	2.530924
	2.488687	2.531244
	2.488687	2.533164
	2.488367	2.535723
	2.487727	2.538923
	2.487087	2.544363
	2.484207	2.549482
	2.479408	2.553962
	2.476208	2.559402
	2.472048	2.562282
	2.481007	2.565161
	2.462449	2.566441
	2.458289	2.568681
	2.457329	2.568681
	2.457649	2.569641
	2.460209	2.569961
	2.459249	2.570281
	2.464049	2.571241
	2.466288	2.570601
	2.471728	2.569001
	2.476528	2.568681
	2.480047	2.567721
	2.484527	2.565801
	2.485487	2.564201
	2.490927	2.561002
	2.495406	2.558122
	2.498286	2.555882
	2.503406	2.552042
	2.509165	2.542443
	2.515885	2.545323
	2.522604	2.540203
	2.529004	2.537003
	2.534124	2.531564
	2.540203	2.527404
	2.545003	2.575721
	2.548203	2.519085
	2.549802	2.514605
	2.547243	2.511405
	2.548523	2.506606
	2.545963	2.502766
	2.543403	2.499566
	2.539883	2.497006
	2.538603	2.492527
	2.537323	2.488047
	2.535083	2.484207
	2.534764	2.480687
	2.534444	2.476528
	2.533804	2.473968
	2.533164	2.473328
	2.532524	2.469808
	2.529644	2.469808
	2.526444	2.470448
	2.524524	2.473008
	2.520685	2.476848
	2.513645	2.480047
	2.508205	2.484527
	2.505646	2.490287
	2.503086	2.619237
	2.500846	2.497646
	2.498286	2.499246
	2.496686	2.500846
	2.494766	2.500526
	2.494446	2.501166
	2.493487	2.499886
	2.491247	2.499886
	2.488687	2.497646
	2.486767	2.650275
	2.484207	2.495086
	2.483887	2.495406
	2.481967	2.495086
	2.481327	2.495086
	2.481007	2.494126
	2.481647	2.494126
	2.481967	2.493487
	2.485807	2.490607
	2.488047	2.492207
	2.492847	2.485807
	2.493167	2.483887
	2.495726	2.482927
	2.499566	2.483567
	2.502126	2.487087
	2.504366	2.491887
	2.504046	2.497966
	2.505326	2.507565
	2.505326	2.516845
	2.505966	2.527084
	2.505966	2.537003
	2.506286	2.546923
	2.505646	2.592999
	2.504686	2.560682
	2.503406	2.564521
	2.503726	2.566441
	2.502126	2.567721
	2.501486	2.568681
	2.501806	2.569001
	2.501486	2.570601
	2.502446	2.573161
	2.501806	2.577960
	2.502126	2.582120
	2.502446	2.585640
	2.503086	2.588200
	2.503726	2.594599
	2.505326	2.586920
	2.506286	2.582440
	2.507885	2.572521
	2.510445	2.561002
	2.513965	2.549482
	2.516205	2.537643
	2.519085	2.522284
	2.522284	2.508205
	2.527084	2.496366
	2.528364	2.487727
	2.531244	2.478128
	2.533164	2.473328
	2.533804	2.470768
	2.534444	2.470768
	2.532844	2.471088
	2.533164	2.472368
	2.530924	2.473008
	2.527724	2.473648
	2.524524	2.474288
	2.522604	2.474288
	2.518765	2.478448
	2.516845	2.475888
	2.515565	2.477808
	2.514285	2.481007
	2.513005	2.669154
	2.511085	2.491247
	2.510125	2.497646
	2.509165	2.505646
	2.509165	2.512045
	2.508525	2.516845
	2.506926	2.520685
	2.505646	2.521324
	2.505646	2.520365
	2.505646	2.517805
	2.505966	2.513005
	2.507246	2.508205
	2.509165	2.503086
	2.511405	2.499246
	2.514285	2.495726
	2.516525	2.494446
	2.519085	2.494446
	2.521324	2.495406
	2.522924	2.497646
	2.522604	2.499886
	2.522604	2.502446
	2.520685	2.503726
	2.518765	2.502446
	2.516525	2.500206
	2.513005	2.496686
	2.509805	2.492527
	2.505326	2.487727
	2.501486	2.483247
	2.497006	2.479728
	2.491247	2.476848
	2.486447	2.476528
	2.481007	2.477808
	2.473968	2.481647
	2.466928	2.487087
	2.460529	2.492847
	2.455729	2.499566
	2.449330	2.505006
	2.444530	2.511085
	2.439090	2.515885
	2.436211	2.518445
	2.434291	2.521005
	2.430131	2.522924
	2.431411	2.524524
	2.431731	2.525484
	2.432371	2.527404
	2.432051	2.528364
	2.434931	2.529964
	2.438450	2.530604
	2.441970	2.575721
	2.453489	2.534444
	2.451250	2.536363
	2.457649	2.536363
	2.465649	2.553962
	2.473328	2.535083
	2.478128	2.531884
	2.485167	2.529004
	2.493167	2.543083
	2.499246	2.517805
	2.504686	2.514925
	2.507565	2.510445
	2.510125	2.505646
	2.513965	2.501166
	2.515885	2.498606
	2.516845	2.494446
	2.517485	2.494766
	2.518445	2.492207
	2.518125	2.491567
	2.517485	2.491887
	2.517805	2.489327
	2.519085	2.488367
	2.518125	2.487087
	2.518765	2.496686
	2.519405	2.484527
	2.519405	2.485167
	2.520685	2.486127
	2.521964	2.491887
	2.524524	2.489327
	2.525804	2.493806
	2.528044	2.500846
	2.529324	2.507885
	2.529964	2.515565
	2.530284	2.536363
	2.529324	2.538603
	2.528044	2.557162
	2.525804	2.556842
	2.524204	2.632036
	2.521005	2.652835
	2.521964	2.599079
	2.513325	2.690912
	2.511405	2.632036
	2.509165	2.620837
	2.505966	2.580520
	2.505326	2.624997
	2.504686	2.632996
	2.504046	2.566121
	2.503726	2.554922
	2.505326	2.554282
	2.506286	2.649955
	2.513965	2.536363
	2.506606	2.548842
	2.506926	2.527404
	2.506606	2.520045
	2.505326	2.509805
	2.505006	2.517805
	2.502766	2.517485
	2.503086	2.501486
	2.503086	2.497326
	2.503406	2.504366
	2.503726	2.535083
	2.506606	2.498926
	2.505006	2.507885
	2.507246	2.503406
	2.507565	2.505006
	2.507565	2.506286
	2.506926	2.515565
	2.507246	2.520685
	2.518445	2.517805
	2.504686	2.520045
	2.503726	2.525804
	2.501166	2.525164
	2.501806	2.521005
	2.500846	2.524204
	2.499886	2.518445
	2.500526	2.515245
	2.503726	2.511405
	2.505006	2.513325
	2.508205	2.513325
	2.510445	2.508205
	2.511085	2.509485
	2.511725	2.512685
	2.672034	2.513645
	2.508845	2.514605
	2.506286	2.518445
	2.503086	2.523244
	2.500526	2.517485
	2.494126	2.517485
	2.489327	2.513325
	2.486767	2.509165
	2.482927	2.503086
	2.480687	2.498606
	2.478448	2.500206
	2.480047	2.484847
	2.479728	2.479408
	2.481647	2.474928
	2.485167	2.469808
	2.489007	2.467568
	2.492847	2.466928
	2.498286	2.470448
	2.500846	2.471408
	2.506606	2.475248
	2.511725	2.478768
	2.538283	2.483567
	2.522924	2.488687
	2.521644	2.493806
	2.521644	2.498926
	2.521644	2.503086
	2.523244	2.508525
	2.518445	2.514285
	2.525164	2.521324
	2.514285	2.529644
	2.511405	2.539563
	2.508205	2.553962
	2.506286	2.559402
	2.504686	2.570281
	2.503406	2.579240
	2.504686	2.582440
	2.505006	2.584680
	2.507565	2.581800
	2.552042	2.578280
	2.512045	2.571241
	2.514285	2.563881
	2.515565	2.556522
	2.518445	2.545323
	2.518445	2.539883
	2.519085	2.536683
	2.521324	2.535723
	2.520685	2.559402
	2.520685	2.543083
	2.528684	2.557162
	2.519085	2.551402
	2.519405	2.557162
	2.521005	2.561322
	2.521324	2.562921
	2.524204	2.560682
	2.525164	2.559082
	2.528364	2.554602
	2.527084	2.549802
	2.527724	2.542763
	2.573801	2.539883
	2.527404	2.532524
	2.526444	2.530284
	2.527404	2.527404
	2.528044	2.525804
	2.529324	2.523884
	2.529004	2.523884
	2.532844	2.521005
	2.533804	2.519085
	2.536363	2.514925
	2.549162	2.513325
	2.538923	2.505006
	2.538603	2.500846
	2.537323	2.495726
	2.534124	2.491247
	2.532844	2.487407
	2.528364	2.485167
	2.524524	2.481967
	2.519725	2.482287
	2.516845	2.481647
	2.513325	2.487727
	2.508205	2.481327
	2.504046	2.481647
	2.502766	2.482287
	2.498926	2.481327
	2.495726	2.481647
	2.520045	2.481967
	2.491247	2.481327
	2.489007	2.480687
	2.487407	2.482287
	2.485487	2.483247
	2.482927	2.486127
	2.479728	2.488687
	2.476848	2.494126
	2.473968	2.498286
	2.469168	2.504686
	2.465649	2.509485
	2.460529	2.514605
	2.456369	2.520045
	2.457329	2.525484
	2.448370	2.527724
	2.444530	2.530604
	2.455409	2.531564
	2.440370	2.531564
	2.440050	2.529644
	2.440690	2.527724
	2.441970	2.525164
	2.442930	2.523884
	2.447730	2.521964
	2.449010	2.541483
	2.454129	2.521644
	2.460209	2.518765
	2.466608	2.518765
	2.473968	2.516205
	2.479408	2.515245
	2.486767	2.509805
	2.495406	2.509485
	2.502126	2.505006
	2.508205	2.501486
	2.513325	2.497966
	2.520685	2.493487
	2.527084	2.489327
	2.529644	2.487727
	2.532204	2.487087
	2.539563	2.486767
	2.540203	2.488367
	2.544683	2.490287
	2.554922	2.490287
	2.549162	2.489647
	2.553642	2.490927
	2.556202	2.491247
	2.557162	2.492207
	2.579560	2.488367
	2.570281	2.488367
	2.577320	2.490607
	2.547243	2.489327
	2.631716	2.490287
	2.549482	2.493806
	2.533804	2.498286
	2.626597	2.502126
	2.540203	2.506606
	2.521005	2.515245
	2.619877	2.515885
	2.518445	2.520365
	2.509805	2.523244
	2.528684	2.525164
	2.513005	2.526764
	2.500526	2.528044
	2.529324	2.528684
	2.498286	2.530924
	2.493806	2.533484
	2.511725	2.536363
	2.499566	2.539883
	2.494446	2.543723
	2.517485	2.547563
	2.502766	2.550762
	2.503406	2.554922
	2.518445	2.556842
	2.517165	2.558122
	2.519085	2.556522
	2.539563	2.554282
	2.535723	2.552682
	2.541803	2.551082
	2.551722	2.548203
	2.554922	2.546923
	2.557162	2.546283
	2.569961	2.546283
	2.564841	2.546283
	2.563241	2.546283
	2.568361	2.544683
	2.561962	2.545003
	2.556202	2.543403
	2.558122	2.542763
	2.547563	2.539883
	2.542123	2.537963
	2.542123	2.537003
	2.534444	2.534124
	2.531884	2.533164
	2.534764	2.532524
	2.532844	2.530924
	2.533804	2.530924
	2.536363	2.530284
	2.537963	2.530284
	2.539883	2.529644
	2.542123	2.526444
	2.540203	2.524204
	2.538283	2.520685
	2.538603	2.518125
	2.534124	2.514285
	2.530924	2.511725
	2.529964	2.508205
	2.522284	2.507565
	2.521644	2.506286
	2.521005	2.504686
	2.513645	2.504366
	2.512045	2.503406
	2.511725	2.502766
	2.507246	2.502446
	2.506286	2.501486
	2.513965	2.499886
	2.500846	2.496046
	2.498606	2.494126
	2.497326	2.489967
	2.491887	2.486447
	2.488687	2.483247
	2.485487	2.477808
	2.481007	2.474288
	2.479728	2.471088
	2.475248	2.466928
	2.472368	2.465649
	2.470448	2.465009
	2.467888	2.463089
	2.465968	2.468848
	2.464369	2.468528
	2.462769	2.472368
	2.508845	2.475888
	2.458929	2.480367
	2.457649	2.486127
	2.455089	2.490287
	2.453489	2.495086
	2.450930	2.501166
	2.449650	2.506286
	2.451570	2.510445
	2.449010	2.514285
	2.452209	2.521005
	2.465649	2.523884
	2.461809	2.527404
	2.465329	2.531884
	2.475248	2.535403
	2.480367	2.534124
	2.487727	2.538603
	2.495406	2.538923
	2.500846	2.539563
	2.508205	2.537643
	2.514605	2.537323
	2.522284	2.535083
	2.528044	2.534764
	2.530924	2.534124
	2.536363	2.535083
	2.543723	2.537323
	2.548842	2.545963
	2.553002	2.544363
	2.557482	2.549482
	2.557802	2.553642
	2.558442	2.556202
	2.555882	2.559722
	2.555242	2.561322
	2.551722	2.562282
	2.546603	2.563561
	2.543403	2.561642
	2.538283	2.561002
	2.531564	2.559722
	2.532204	2.559722
	2.530284	2.559082
	2.525804	2.558442
	2.526764	2.559402
	2.524204	2.558442
	2.522604	2.555882
	2.523244	2.551722
	2.522284	2.548523
	2.523884	2.543723
	2.522924	2.537643
	2.524524	2.531244
	2.526124	2.525804
	2.527404	2.519405
	2.529004	2.514285
	2.528684	2.509485
	2.527404	2.507565
	2.526444	2.504366
	2.524524	2.502126
	2.519405	2.500526
	2.517805	2.499566
	2.513965	2.496686
	2.509485	2.494766
	2.505646	2.493487
	2.504686	2.491567
	2.502126	2.489007
	2.499886	2.485807
	2.500526	2.483247
	2.500846	2.480687
	2.500846	2.478448
	2.500846	2.474928
	2.500846	2.473008
	2.497326	2.471728
	2.495726	2.469808
	2.493167	2.468528
	2.489967	2.468208
	2.486127	2.468848
	2.481967	2.471408
	2.478128	2.475248
	2.473968	2.481327
	2.474608	2.487727
	2.471088	2.501166
	2.469488	2.513965
	2.467568	2.527404
	2.466928	2.541803
	2.467568	2.554602
	2.466288	2.566761
	2.464689	2.575401
	2.475568	2.582760
	2.462449	2.585640
	2.462129	2.586920
	2.461809	2.586600
	2.463729	2.584680
	2.468528	2.579240
	2.474288	2.583080
	2.480047	2.571241
	2.488047	2.567401
	2.505966	2.562921
	2.504686	2.560362
	2.511405	2.557482
	2.519405	2.554922
	2.527084	2.551082
	2.532204	2.547883
	2.534764	2.542123
	2.537323	2.535723
	2.537643	2.529004
	2.537963	2.522924
	2.536363	2.515885
	2.533804	2.512045
	2.533164	2.508525
	2.532524	2.505006
	2.530284	2.502766
	2.529324	2.499886
	2.528044	2.499566
	2.527724	2.499246
	2.526444	2.499886
	2.524204	2.499246
	2.520045	2.499246
	2.519085	2.497006
	2.517165	2.496046
	2.512685	2.503726
	2.508845	2.494446
	2.505006	2.493487
	2.505646	2.492847
	2.499246	2.492847
	2.497326	2.493806
	2.495406	2.495726
	2.495086	2.498606
	2.495406	2.503086
	2.496046	2.505326
	2.497326	2.510765
	2.496366	2.515565
	2.496046	2.519405
	2.496686	2.524524
	2.496366	2.528364
	2.496046	2.529004
	2.494446	2.529964
	2.495406	2.530284
	2.494766	2.530284
	2.493806	2.529644
	2.492847	2.530924
	2.495726	2.530924
	2.498286	2.530284
	2.498926	2.531564
	2.500846	2.531884
	2.504686	2.532204
	2.507565	2.531884
	2.510765	2.530284
	2.513645	2.533164
	2.516205	2.527724
	2.518445	2.524844
	2.520685	2.520365
	2.521644	2.516525
	2.521964	2.519405
	2.520685	2.512045
	2.520045	2.510445
	2.524524	2.511405
	2.517805	2.512045
	2.515245	2.519725
	2.513965	2.513325
	2.513005	2.513645
	2.516525	2.514925
	2.511725	2.513645
	2.511085	2.513965
	2.510445	2.512365
	2.510125	2.510765
	2.515245	2.508205
	2.510445	2.508205
	2.509485	2.507885
	2.507246	2.507885
	2.505966	2.508845
	2.502126	2.512045
	2.499566	2.513325
	2.498606	2.518125
	2.494766	2.517805
	2.490607	2.521005
	2.488047	2.521644
	2.484207	2.523564
	2.482287	2.525804
	2.479408	2.527404
	2.474288	2.528044
	2.471088	2.531244
	2.467888	2.533804
	2.465009	2.537003
	2.460529	2.539243
	2.457329	2.542123
	2.455729	2.543083
	2.453809	2.545323
	2.452849	2.543403
	2.452209	2.542123
	2.451570	2.540203
	2.451570	2.534764
	2.452529	2.530604
	2.460209	2.525804
	2.454449	2.521005
	2.454129	2.518765
	2.455089	2.517805
	2.456049	2.516525
	2.455729	2.517485
	2.459889	2.516845
	2.460849	2.517485
	2.463729	2.518445
	2.466608	2.518445
	2.466608	2.517485
	2.471088	2.514605
	2.530924	2.513325
	2.474288	2.510765
	2.478128	2.508845
	2.477168	2.505646
	2.478128	2.503726
	2.481327	2.504366
	2.484207	2.503726
	2.486127	2.503406
	2.489007	2.504366
	2.493806	2.510125
	2.499886	2.502126
	2.504046	2.500206
	2.510445	2.497006
	2.513005	2.493167
	2.515565	2.489647
	2.518125	2.485807
	2.520045	2.566761
	2.521964	2.477488
	2.522284	2.474928
	2.617957	2.473648
	2.521324	2.473008
	2.520685	2.473648
	2.519725	2.476208
	2.518765	2.479728
	2.516525	2.483887
	2.514605	2.486127
	2.511085	2.488687
	2.506286	2.491887
	2.502126	2.495726
	2.496366	2.498286
	2.488687	2.501486
	2.483887	2.504366
	2.481007	2.507246
	2.499246	2.510125
	2.472688	2.513965
	2.471728	2.517485
	2.471408	2.520685
	2.474608	2.525164
	2.476848	2.527404
	2.480687	2.530284
	2.489007	2.532524
	2.491887	2.533164
	2.494126	2.534124
	2.498926	2.531884
	2.504046	2.533164
	2.508525	2.527724
	2.511085	2.524844
	2.513645	2.521964
	2.517485	2.519725
	2.521964	2.517165
	2.524524	2.516205
	2.527404	2.520045
	2.529004	2.514605
	2.529004	2.512685
	2.542443	2.513005
	2.530604	2.510445
	2.529644	2.506926
	2.528684	2.503086
	2.526444	2.499566
	2.524524	2.492527
	2.521644	2.487407
	2.521005	2.481007
	2.520045	2.477808
	2.519405	2.473328
	2.518445	2.471088
	2.518765	2.470128
	2.517485	2.470448
	2.516525	2.469488
	2.515565	2.472688
	2.513645	2.473328
	2.546603	2.474928
	2.509805	2.474928
	2.508205	2.476208
	2.505646	2.476208
	2.504046	2.478448
	2.500846	2.478448
	2.499566	2.481647
	2.497646	2.485807
	2.497646	2.490927
	2.497006	2.496046
	2.499246	2.502126
	2.500846	2.508845
	2.503726	2.517805
	2.506286	2.521964
	2.509485	2.524524
	2.511405	2.526124
	2.512685	2.526124
	2.514285	2.525804
	2.512365	2.525804
	2.514925	2.523244
	2.514605	2.522284
	2.513965	2.522604
	2.513005	2.525164
	2.514925	2.524204
	2.515885	2.524844
	2.519725	2.527404
	2.520685	2.528684
	2.546603	2.529004
	2.526764	2.530604
	2.530284	2.528044
	2.531884	2.525164
	2.533804	2.521964
	2.533804	2.516205
	2.535403	2.593959
	2.534124	2.505326
	2.532524	2.503406
	2.535403	2.498926
	2.531884	2.497646
	2.529324	2.495406
	2.527724	2.493806
	2.529324	2.492207
	2.527724	2.493167
	2.528044	2.495086
	2.527404	2.493806
	2.527404	2.495086
	2.529004	2.497646
	2.527404	2.500206
	2.538283	2.503086
	2.523564	2.509805
	2.518765	2.512045
	2.514285	2.519725
	2.511725	2.526124
	2.507565	2.533804
	2.501806	2.545003
	2.496686	2.547243
	2.490607	2.552362
	2.488367	2.558122
	2.481327	2.560682
	2.571241	2.562282
	2.474288	2.562921
	2.471408	2.563561
	2.470128	2.562282
	2.468208	2.561322
	2.466608	2.559082
	2.464369	2.558122
	2.463729	2.554922
	2.463729	2.625957
	2.463409	2.549482
	2.463409	2.545003
	2.466288	2.541483
	2.465329	2.536683
	2.465329	2.529644
	2.467248	2.522924
	2.469808	2.517805
	2.471408	2.511085
	2.473968	2.505966
	2.476208	2.498606
	2.478768	2.497326
	2.481327	2.495726
	2.486127	2.497006
	2.489647	2.491887
	2.491567	2.492847
	2.494446	2.492847
	2.496046	2.494446
	2.514285	2.494126
	2.502446	2.494446
	2.504686	2.494446
	2.507565	2.494446
	2.508205	2.494766
	2.508845	2.497006
	2.506926	2.499566
	2.506286	2.502766
	2.504686	2.510445
	2.502766	2.517165
	2.499886	2.527404
	2.496366	2.533804
	2.491887	2.602599
	2.489007	2.553002
	2.483247	2.560042
	2.480047	2.567721
	2.474608	2.571881
	2.481327	2.574761
	2.466928	2.575401
	2.464689	2.573801
	2.461489	2.572841
	2.460849	2.568681
	2.461809	2.564841
	2.459889	2.559082
	2.462129	2.555562
	2.464689	2.550442
	2.467248	2.545003
	2.472688	2.569321
	2.478768	2.531564
	2.485167	2.544363
	2.492207	2.513965
	2.497966	2.505966
	2.505966	2.492527
	2.514285	2.483567
	2.521964	2.469808
	2.529004	2.458609
	2.536043	2.448690
	2.540203	2.442290
	2.553642	2.435891
	2.549482	2.432371
	2.589160	2.428531
	2.553002	2.428851
	2.553642	2.429811
	2.555242	2.430771
	2.554282	2.434931
	2.551402	2.438770
	2.549482	2.475888
	2.545963	2.446450
	2.541803	2.468208
	2.537003	2.456049
	2.531884	2.465649
	2.527724	2.464689
	2.521324	2.472688
	2.515245	2.476528
	2.509165	2.481647
	2.502446	2.487407
	2.498606	2.494446
	2.492527	2.542763
	2.487407	2.508205
	2.482607	2.570601
	2.479408	2.516205
	2.478448	2.585960
	2.476528	2.521324
	2.474928	2.526124
	2.473328	2.525484
	2.474608	2.527724
	2.474288	2.527404
	2.476848	2.526764
	2.478448	2.521964
	2.481967	2.521005
	2.483247	2.517805
	2.489327	2.524844
	2.489647	2.515245
	2.502446	2.513645
	2.498286	2.509805
	2.512685	2.515245
	2.506926	2.498606
	2.532204	2.496046
	2.517485	2.490287
	2.522924	2.498926
	2.525484	2.486767
	2.528364	2.487087
	2.532524	2.488367
	2.534764	2.489327
	2.536683	2.490607
	2.538283	2.491887
	2.539243	2.497326
	2.539243	2.500846
	2.538283	2.505006
	2.537323	2.508205
	2.537003	2.513965
	2.535403	2.514605
	2.533484	2.517485
	2.531564	2.518765
	2.528364	2.522604
	2.526444	2.524524
	2.524204	2.528684
	2.521644	2.531244
	2.519085	2.537003
	2.516845	2.540523
	2.514925	2.546923
	2.512685	2.548203
	2.512365	2.553642
	2.510765	2.554922
	2.509165	2.559722
	2.506286	2.560042
	2.504366	2.561002
	2.502126	2.560682
	2.497966	2.561962
	2.494766	2.561642
	2.491887	2.563561
	2.487727	2.565161
	2.483567	2.568041
	2.480047	2.570921
	2.476208	2.573481
	2.474608	2.576680
	2.474288	2.577640
	2.473328	2.577640
	2.473648	2.577640
	2.473648	2.574761
	2.473328	2.570601
	2.473648	2.565801
	2.474928	2.560682
	2.474608	2.553322
	2.474288	2.546923
	2.475568	2.540523
	2.475888	2.534124
	2.494126	2.529324
	2.476848	2.547883
	2.477168	2.521964
	2.478448	2.519085
	2.490607	2.515885
	2.480047	2.512685
	2.488367	2.509485
	2.481647	2.505966
	2.485807	2.504366
	2.482607	2.502126
	2.490927	2.500206
	2.484207	2.498926
	2.485487	2.496366
	2.484527	2.497006
	2.487727	2.492847
	2.488687	2.492207
	2.491247	2.491887
	2.492527	2.495086
	2.493487	2.487727
	2.494766	2.484527
	2.496686	2.483887
	2.498606	2.482607
	2.499566	2.479728
	2.499886	2.478768
	2.503086	2.479088
	2.503406	2.477488
	2.508525	2.474608
	2.513005	2.472688
	2.514605	2.490607
	2.518445	2.473008
	2.522604	2.473968
	2.524524	2.473008
	2.526444	2.496366
	2.528364	2.475248
	2.527724	2.484847
	2.530924	2.479728
	2.524524	2.489007
	2.553002	2.483567
	2.521005	2.484847
	2.531244	2.485167
	2.515245	2.486767
	2.517805	2.488687
	2.513965	2.490287
	2.513005	2.490287
	2.510445	2.493806
	2.508845	2.495086
	2.507246	2.496046
	2.506926	2.539883
	2.505006	2.499886
	2.502446	2.504046
	2.499566	2.504046
	2.496366	2.508525
	2.496046	2.503086
	2.492207	2.505326
	2.490607	2.504046
	2.488047	2.505646
	2.516845	2.528044
	2.484847	2.508845
	2.507565	2.513325
	2.483567	2.516845
	2.486447	2.518125
	2.486767	2.522924
	2.498606	2.525804
	2.490927	2.526124
	2.500206	2.591399
	2.495086	2.525164
	2.497646	2.528364
	2.500206	2.522924
	2.514605	2.528684
	2.505326	2.520045
	2.508845	2.522924
	2.580840	2.517805
	2.513645	2.521964
	2.527404	2.527084
	2.522284	2.529644
	2.531244	2.536363
	2.611238	2.539243
	2.529964	2.544043
	2.602599	2.547883
	2.532844	2.659554
	2.568361	2.553642
	2.525484	2.556202
	2.519725	2.554282
	2.532204	2.554602
	2.574761	2.551722
	2.526764	2.555562
	2.519725	2.547563
	2.539243	2.548523
	2.512365	2.545643
	2.512685	2.545003
	2.509805	2.545003
	2.520045	2.543723
	2.507565	2.541163
	2.526124	2.539563
	2.503726	2.545323
	2.505326	2.529964
	2.500846	2.528684
	2.494766	2.519405
	2.492207	2.514925
	2.486447	2.508525
	2.483887	2.507246
	2.475568	2.505646
	2.478128	2.504366
	2.471408	2.503406
	2.473648	2.504366
	2.469168	2.547243
	2.473328	2.506606
	2.469808	2.505646
	2.471728	2.502446
	2.473648	2.498286
	2.473968	2.491567
	2.474928	2.485807
	2.477168	2.476208
	2.481327	2.471728
	2.483567	2.463089
	2.488367	2.460529
	2.492207	2.530924
	2.497646	2.456049
	2.501486	2.464049
	2.505646	2.458289
	2.509165	2.462769
	2.510445	2.464369
	2.512685	2.466928
	2.512365	2.468528
	2.513645	2.467888
	2.509485	2.471088
	2.508205	2.471408
	2.503406	2.555242
	2.500846	2.475568
	2.497966	2.492847
	2.495406	2.484207
	2.494126	2.489327
	2.492527	2.493167
	2.491247	2.497646
	2.489327	2.501806
	2.489327	2.505006
	2.490287	2.505966
	2.490607	2.506606
	2.491887	2.521644
	2.495406	2.502126
	2.498926	2.502126
	2.504686	2.494766
	2.510765	2.493487
	2.518125	2.491887
	2.526444	2.491567
	2.534124	2.493806
	2.539563	2.495726
	2.548523	2.505646
	2.553962	2.499886
	2.559722	2.504366
	2.564521	2.504046
	2.564841	2.504046
	2.565801	2.504046
	2.563561	2.503726
	2.560042	2.502126
	2.555562	2.501486
	2.552042	2.511725
	2.547563	2.503086
	2.543403	2.508525
	2.541163	2.509485
	2.537643	2.514605
	2.537323	2.518125
	2.536043	2.521644
	2.537003	2.524524
	2.536683	2.526444
	2.536683	2.534124
	2.536043	2.523884
	2.533804	2.523244
	2.531564	2.520045
	2.526764	2.520365
	2.523884	2.518445
	2.521324	2.518765
	2.516525	2.529324
	2.513005	2.524844
	2.510445	2.527724
	2.508525	2.530924
	2.508845	2.534444
	2.508845	2.535723
	2.508525	2.537963
	2.509805	2.536363
	2.510125	2.534764
	2.509165	2.534764
	2.508845	2.528684
	2.507565	2.525804
	2.503726	2.522284
	2.502446	2.519405
	2.498286	2.520045
	2.496366	2.520045
	2.493487	2.522924
	2.490927	2.522924
	2.490927	2.523564
	2.489007	2.526124
	2.489007	2.528364
	2.488687	2.524204
	2.487407	2.522604
	2.485807	2.541483
	2.483247	2.517485
	2.479088	2.516525
	2.475888	2.515565
	2.473008	2.517485
	2.469168	2.516525
	2.465329	2.518765
	2.465009	2.536683
	2.463409	2.524204
	2.465649	2.526444
	2.466608	2.526444
	2.470128	2.524524
	2.473968	2.521324
	2.478448	2.518125
	2.483567	2.513325
	2.485807	2.504686
	2.488367	2.496686
	2.493167	2.489647
	2.496366	2.483567
	2.498606	2.479088
	2.500526	2.478448
	2.502126	2.479088
	2.505326	2.480047
	2.505646	2.483887
	2.506606	2.486447
	2.506926	2.490927
	2.506926	2.715870
	2.506286	2.492207
	2.502766	2.491887
	2.500206	2.491567
	2.497966	2.490287
	2.494126	2.489327
	2.490927	2.490607
	2.486447	2.490927
	2.556842	2.493167
	2.484847	2.495726
	2.484847	2.500846
	2.486767	2.503726
	2.488687	2.588840
	2.489647	2.511725
	2.491887	2.513965
	2.494446	2.513005
	2.498286	2.511405
	2.501166	2.507885
	2.502446	2.503086
	2.504366	2.504046
	2.511405	2.495726
	2.508205	2.493806
	2.512045	2.492527
	2.511405	2.492847
	2.513645	2.576360
	2.515885	2.497646
	2.520045	2.499566
	2.531884	2.502126
	2.525484	2.502126
	2.529644	2.502766
	2.553002	2.502126
	2.538603	2.502766
	2.544683	2.500846
	2.547243	2.502126
	2.555242	2.502126
	2.654115	2.503406
	2.565481	2.508205
	2.580840	2.507246
	2.567401	2.510765
	2.573481	2.514285
	2.586280	2.518125
	2.569321	2.540203
	2.594279	2.522284
	2.559402	2.522604
	2.561642	2.522604
	2.639396	2.521964
	2.543083	2.521964
	2.557802	2.521005
	2.536683	2.519405
	2.534764	2.520685
	2.545003	2.521005
	2.525804	2.522284
	2.528684	2.524524
	2.537003	2.527404
	2.527084	2.528044
	2.521964	2.530284
	2.522604	2.531564
	2.529964	2.531564
	2.520045	2.530924
	2.524524	2.528044
	2.513645	2.523564
	2.512045	2.520045
	2.513005	2.518445
	2.509805	2.515565
	2.510445	2.513645
	2.504686	2.515245
	2.503726	2.515885
	2.519405	2.518765
	2.503406	2.523244
	2.506606	2.524844
	2.503406	2.527084
	2.497006	2.529324
	2.497646	2.530284
	2.493487	2.530284
	2.491887	2.529004
	2.487727	2.526444
	2.485487	2.525164
	2.487087	2.521644
	2.481327	2.520685
	2.483247	2.519085
	2.596199	2.516845
	2.482607	2.514925
	2.486447	2.512685
	2.487727	2.511085
	2.491247	2.507565
	2.581160	2.505646
	2.498286	2.510125
	2.501806	2.497646
	2.500526	2.493487
	2.504366	2.490287
	2.528364	2.487407
	2.502446	2.498926
	2.503726	2.483567
	2.503086	2.484207
	2.504046	2.481967
	2.539563	2.484847
	2.503406	2.489327
	2.505966	2.486767
	2.508205	2.488047
	2.507885	2.529004
	2.517485	2.487727
	2.509805	2.487727
	2.511085	2.484847
	2.511405	2.483567
	2.509805	2.543083
	2.510125	2.482287
	2.505646	2.482287
	2.505646	2.482607
	2.553002	2.482607
	2.503726	2.492847
	2.503086	2.483567
	2.502126	2.483247
	2.499886	2.483887
	2.506926	2.481647
	2.497966	2.480687
	2.497646	2.478768
	2.495406	2.479088
	2.493806	2.479728
	2.493806	2.478128
	2.493487	2.479728
	2.494766	2.481967
	2.499566	2.484207
	2.494766	2.490927
	2.497006	2.491887
	2.498286	2.497326
	2.498606	2.503086
	2.502766	2.509805
	2.497646	2.516525
	2.496366	2.521964
	2.501486	2.527724
	2.489647	2.545643
	2.487407	2.539243
	2.482927	2.543403
	2.480047	2.547243
	2.481007	2.550442
	2.476528	2.553962
	2.476528	2.553962
	2.599079	2.555242
	2.476528	2.565161
	2.494126	2.553002
	2.480367	2.550762
	2.482607	2.547243
	2.488687	2.544683
	2.488367	2.538603
	2.493487	2.533804
	2.559082	2.530604
	2.497966	2.531564
	2.508525	2.523884
	2.504046	2.521644
	2.507246	2.521324
	2.516845	2.519085
	2.512045	2.521324
	2.513325	2.516525
	2.513645	2.512365
	2.513645	2.569321
	2.515565	2.509485
	2.512365	2.507565
	2.510445	2.507246
	2.510445	2.506286
	2.507565	2.506926
	2.505646	2.506606
	2.511085	2.507565
	2.503726	2.510765
	2.509805	2.513325
	2.503086	2.516525
	2.499566	2.552042
	2.498926	2.524204
	2.497006	2.528684
	2.493487	2.532844
	2.493167	2.537963
	2.489327	2.539563
	2.488047	2.540203
	2.496366	2.540523
	2.483567	2.545643
	2.482287	2.541163
	2.483247	2.539563
	2.483567	2.557802
	2.485487	2.537963
	2.489327	2.537323
	2.491887	2.534124
	2.497326	2.532844
	2.499886	2.531244
	2.509805	2.526124
	2.512045	2.524524
	2.510445	2.522604
	2.511405	2.514605
	2.513645	2.510445
	2.513645	2.528684
	2.513645	2.501806
	2.512045	2.498286
	2.510765	2.497966
	2.510125	2.497966
	2.510445	2.499886
	2.510445	2.501166
	2.512685	2.502126
	2.509485	2.505966
	2.508845	2.505966
	2.675553	2.507885
	2.508845	2.545963
	2.506606	2.510445
	2.506926	2.508845
	2.504046	2.598119
	2.505006	2.505646
	2.502446	2.504686
	2.505006	2.501806
	2.503086	2.500526
	2.500846	2.499886
	2.503086	2.713631
	2.504686	2.499886
	2.504686	2.499566
	2.505326	2.500846
	2.510125	2.500206
	2.508525	2.500206
	2.510125	2.499566
	2.513645	2.497326
	2.511085	2.498926
	2.511405	2.492207
	2.511725	2.491247
	2.510765	2.505006
	2.508845	2.488367
	2.505006	2.489967
	2.503086	2.491567
	2.502126	2.493806
	2.498606	2.498286
	2.497006	2.500846
	2.496046	2.503086
	2.493487	2.504686
	2.493487	2.504686
	2.505966	2.504686
	2.495726	2.506286
	2.495086	2.503726
	2.504366	2.504046
	2.495406	2.505006
	2.495726	2.505006
	2.547883	2.505966
	2.493806	2.509485
	2.494446	2.509805
	2.503086	2.509165
	2.496046	2.515885
	2.496046	2.510445
	2.670754	2.511085
	2.500206	2.519085
	2.502126	2.510765
	2.505646	2.512365
	2.507246	2.558122
	2.510445	2.515565
	2.510765	2.517165
	2.512365	2.528364
	2.512365	2.522924
	2.512045	2.524844
	2.510765	2.665634
	2.510445	2.525804
	2.509805	2.526124
	2.507246	2.763227
	2.506926	2.525804
	2.505006	2.526444
	2.504686	2.545323
	2.503726	2.526124
	2.505966	2.528044
	2.504046	2.530604
	2.505966	2.529004
	2.504686	2.527724
	2.503726	2.529004
	2.504366	2.528044
	2.503406	2.526444
	2.500526	2.540523
	2.499566	2.523564
	2.496366	2.522284
	2.494126	2.711711
	2.491887	2.517805
	2.489327	2.515885
	2.490287	2.535403
	2.489327	2.509165
	2.489967	2.506926
	2.491567	2.503406
	2.493806	2.502126
	2.494446	2.501166
	2.495086	2.628517
	2.494766	2.500846
	2.494766	2.502446
	2.493487	2.547243
	2.492207	2.504366
	2.490927	2.503726
	2.490287	2.561002
	2.489647	2.500526
	2.489007	2.497006
	2.488687	2.616358
	2.489967	2.490287
	2.491247	2.489327
	2.490607	2.497966
	2.491567	2.489007
	2.489967	2.489327
	2.490927	2.531244
	2.491567	2.491887
	2.490927	2.492527
	2.491247	2.494126
	2.489967	2.490927
	2.491247	2.489007
	2.489327	2.489007
	2.488687	2.486447
	2.498926	2.483567
	2.490607	2.482607
	2.490607	2.580840
	2.501806	2.478768
	2.494766	2.480687
	2.496046	2.479088
	2.502446	2.479088
	2.500206	2.478128
	2.501166	2.480367
	2.507565	2.477168
	2.505326	2.476848
	2.505006	2.481007
	2.504686	2.542763
	2.504366	2.481007
	2.502446	2.492207
	2.504366	2.530924
	2.503726	2.487407
	2.503726	2.504686
	2.504366	2.492847
	2.504686	2.494446
	2.505326	2.537643
	2.504366	2.497966
	2.573481	2.521005
	2.501166	2.500846
	2.500206	2.506926
	2.512685	2.586280
	2.498926	2.534764
	2.497006	2.525804
	2.514285	2.513325
	2.494446	2.525804
	2.493806	2.527084
	2.493806	2.524204
	2.490607	2.545323
	2.490607	2.515885
	2.489967	2.513645
	2.487087	2.511085
	2.486127	2.509485
	2.485167	2.513645
	2.485807	2.519725
	2.486767	2.523244
	2.488367	2.526444
	2.660514	2.525484
	2.491247	2.529324
	2.492527	2.531564
	2.494446	2.526444
	2.491887	2.525804
	2.492527	2.519725
	2.492207	2.513645
	2.491567	2.512685
	2.490607	2.510765
	2.492847	2.511085
	2.680673	2.516525
	2.494766	2.515245
	2.497006	2.521324
	2.517485	2.519405
	2.501806	2.520045
	2.505966	2.522284
	2.510445	2.517165
	2.509165	2.514605
	2.509805	2.509805
	2.512045	2.507246
	2.510445	2.506286
	2.510125	2.505966
	2.510445	2.507246
	2.525164	2.509805
	2.509165	2.512045
	2.511725	2.513325
	2.517485	2.514605
	2.509485	2.516205
	2.509165	2.517805
	2.510125	2.518125
	2.509485	2.517805
	2.508205	2.518765
	2.505966	2.520045
	2.521324	2.522284
	2.501806	2.527084
	2.500846	2.529644
	2.499246	2.533164
	2.493487	2.536683
	2.489967	2.540523
	2.489647	2.541163
	2.527404	2.542443
	2.489007	2.541163
	2.487407	2.537643
	2.499246	2.535723
	2.486447	2.532844
	2.486127	2.531244
	2.483887	2.529964
	2.480687	2.531564
	2.478128	2.533164
	2.476848	2.535403
	2.527724	2.537323
	2.476208	2.538923
	2.473968	2.539883
	2.475248	2.539883
	2.471088	2.538603
	2.473008	2.535403
	2.474288	2.532524
	2.472688	2.529964
	2.474928	2.527724
	2.469808	2.526124
	2.482287	2.526124
	2.474288	2.527084
	2.474608	2.529004
	2.476208	2.530604
	2.478128	2.530604
	2.481967	2.529964
	2.483887	2.529004
	2.490607	2.525164
	2.491887	2.521324
	2.497006	2.518445
	2.502126	2.513965
	2.506286	2.509485
	2.510445	2.506926
	2.516845	2.505326
	2.529004	2.504366
	2.521964	2.505006
	2.525164	2.505646
	2.527084	2.506606
	2.528044	2.506926
	2.527724	2.505646
	2.529004	2.505966
	2.542443	2.505646
	2.529644	2.504686
	2.529644	2.503086
	2.529004	2.504686
	2.542763	2.505646
	2.526444	2.508845
	2.524844	2.510765
	2.526444	2.511085
	2.521005	2.513005
	2.518125	2.513005
	2.516205	2.512045
	2.530924	2.509485
	2.512045	2.507565
	2.509485	2.502766
	2.511085	2.502126
	2.505966	2.500846
	2.505326	2.500846
	2.502446	2.502126
	2.501166	2.504046
	2.499566	2.507246
	2.503726	2.509165
	2.496686	2.512045
	2.538603	2.512685
	2.494766	2.512045
	2.495406	2.510445
	2.494766	2.508205
	2.492847	2.505646
	2.490607	2.500846
	2.490927	2.496686
	2.499246	2.492847
	2.488047	2.489007
	2.490287	2.486447
	2.491887	2.484847
	2.510765	2.486767
	2.501806	2.487087
	2.504046	2.489327
	2.508525	2.491887
	2.591079	2.493806
	2.559082	2.497006
	2.510765	2.496686
	2.521005	2.495406
	2.531244	2.493487
	2.504366	2.489007
	2.498926	2.485487
	2.512045	2.482607
	2.595239	2.481647
	2.510765	2.482607
	2.513005	2.487407
	2.506286	2.491567
	2.507246	2.499246
	2.506286	2.504686
	2.507565	2.510445
	2.505646	2.513645
	2.501486	2.513645
	2.498286	2.509485
	2.502446	2.503726
	2.578920	2.497326
	2.515885	2.489967
	2.511085	2.483247
	2.514285	2.479408
	2.542763	2.479408
	2.512365	2.482287
	2.513005	2.488687
	2.511085	2.493487
	2.513005	2.498926
	2.516525	2.503406
	2.512685	2.505646
	2.511405	2.505006
	2.513325	2.500846
	2.514285	2.494446
	2.510765	2.489007
	2.511085	2.484207
	2.509805	2.481327
	2.509165	2.479408
	2.509805	2.481967
	2.512685	2.486127
	2.508525	2.491247
	2.507565	2.498606
	2.505646	2.505006
	2.505326	2.510765
	2.502126	2.513645
	2.501166	2.514605
	2.499246	2.513325
	2.496046	2.510125
	2.497006	2.508205
	2.494126	2.507246
	2.493167	2.506286
	2.493167	2.508205
	2.493487	2.509805
	2.493806	2.512045
	2.496366	2.517805
	2.496686	2.522924
	2.496366	2.529644
	2.496046	2.535083
	2.494446	2.539563
	2.495086	2.540843
	2.494126	2.541163
	2.491567	2.538603
	2.492847	2.535403
	2.493806	2.530604
	2.494446	2.526444
	2.494446	2.522284
	2.496686	2.520365
	2.498606	2.520045
	2.502446	2.520045
	2.503726	2.522924
	2.504366	2.528044
	2.505646	2.532204
	2.505966	2.536363
	2.504046	2.538923
	2.502126	2.539563
	2.498926	2.536363
	2.496366	2.531244
	2.495086	2.522924
	2.495406	2.514285
	2.492847	2.506606
	2.493487	2.498926
	2.492527	2.492527
	2.495086	2.491247
	2.496046	2.491247
	2.497326	2.496046
	2.497966	2.502766
	2.497646	2.510125
	2.494766	2.517165
	2.493167	2.524524
	2.489647	2.529004
	2.486447	2.529324
	2.483887	2.527404
	2.482927	2.520365
	2.482287	2.512685
	2.482927	2.504046
	2.485807	2.497646
	2.488367	2.495726
	2.490927	2.496046
	2.492207	2.503086
	2.493487	2.514925
	2.495086	2.530284
	2.495086	2.548203
	2.493487	2.566441
	2.491887	2.581160
	2.489647	2.592039
	2.487407	2.595239
	2.487087	2.592359
	2.486767	2.582440
	2.489007	2.566761
	2.489967	2.549802
	2.492847	2.532524
	2.496046	2.516845
	2.501166	2.506286
	2.501806	2.502126
	2.505646	2.504046
	2.507565	2.511085
	2.507565	2.521324
	2.507246	2.532844
	2.508205	2.542123
	2.506606	2.547883
	2.503726	2.551082
	2.503086	2.548203
	2.502126	2.541483
	2.501486	2.530604
	2.500526	2.517805
	2.502446	2.506286
	2.502766	2.496686
	2.503406	2.491887
	2.502446	2.493487
	2.502766	2.500526
	2.501166	2.510125
	2.499566	2.521964
	2.497326	2.536043
	2.496686	2.547883
	2.492207	2.554282
	2.489327	2.558762
	2.485487	2.554922
	2.484527	2.548842
	2.485487	2.539563
	2.484207	2.528364
	2.486127	2.515885
	2.489967	2.504686
	2.495086	2.495726
	2.496046	2.489007
	2.500526	2.485167
	2.504046	2.485167
	2.504366	2.487087
	2.504046	2.490607
	2.503406	2.496046
	2.500206	2.500846
	2.496686	2.505646
	2.494766	2.510765
	2.492207	2.513645
	2.490287	2.515565
	2.490287	2.515885
	2.491247	2.514925
	2.492847	2.513005
	2.495086	2.511725
	2.497006	2.508205
	2.501166	2.503406
	2.502126	2.501486
	2.501806	2.499566
	2.499886	2.499246
	2.498606	2.498926
	2.498286	2.499246
	2.496686	2.502126
	2.497326	2.503406
	2.498606	2.506606
	2.499566	2.509805
	2.501486	2.512685
	2.503406	2.513325
	2.505646	2.516845
	2.507246	2.517165
	2.508845	2.514925
	2.508845	2.513005
	2.509485	2.509805
	2.508525	2.505326
	2.506926	2.501486
	2.504366	2.497646
	2.501806	2.496686
	2.500206	2.496686
	2.498926	2.497966
	2.497646	2.501486
	2.498606	2.506926
	2.500206	2.513005
	2.503726	2.515245
	2.504686	2.519725
	2.509485	2.519405
	2.511725	2.519405
	2.512045	2.570921
	2.513005	2.509805
	2.512365	2.506286
	2.511725	2.499566
	2.510125	2.527084
	2.506926	2.490607
	2.505326	2.535403
	2.503726	2.491247
	2.504686	2.525804
	2.504366	2.504366
	2.505646	2.510445
	2.506606	2.518125
	2.508205	2.524204
	2.508205	2.532204
	2.509485	2.532844
	2.508205	2.526124
	2.508845	2.522284
	2.505966	2.516525
	2.504686	2.544363
	2.502446	2.627877
	2.497966	2.500206
	2.496046	2.593319
	2.496046	2.531564
	2.495406	2.512365
	2.495406	2.517485
	2.497326	2.515245
	2.499566	2.523564
	2.500526	2.535403
	2.501486	2.537963
	2.503086	2.609318
	2.502766	2.638116
	2.502446	2.592039
	2.500526	2.632036
	2.497646	2.520045
	2.494766	2.640036
	2.492527	2.517165
	2.492527	2.555882
	2.491567	2.608998
	2.492847	2.514605
	2.495726	2.515245
	2.497646	2.628517
	2.501166	2.527084
	2.501806	2.523564
	2.504366	2.530284
	2.505326	2.545323
	2.505006	2.571241
	2.503406	2.536043
	2.502126	2.527084
	2.501166	2.524204
	2.497326	2.523244
	2.496366	2.520685
	2.494766	2.507246
	2.493487	2.502126
	2.493806	2.502126
	2.494766	2.507246
	2.495086	2.515245
	2.496366	2.506606
	2.495086	2.508205
	2.495726	2.508205
	2.497646	2.513325
	2.497006	2.536363
	2.496366	2.516525
	2.495406	2.512365
	2.494446	2.511725
	2.495086	2.514925
	2.494446	2.524524
	2.495406	2.514285
	2.494766	2.516845
	2.495726	2.517485
	2.496046	2.515885
	2.496686	2.596199
	2.495406	2.517805
	2.495086	2.516205
	2.494126	2.512365
	2.493487	2.509485
	2.492847	2.548523
	2.493167	2.557162
	2.490607	2.506606
	2.493167	2.505006
	2.494446	2.504686
	2.496366	2.507565
	2.499246	2.522284
	2.501166	2.544043
	2.504046	2.508845
	2.506286	2.508525
	2.505326	2.510445
	2.505326	2.518125
	2.503406	2.556522
	2.500846	2.513965
	2.497006	2.515245
	2.492527	2.514605
	2.488687	2.533484
	2.486447	2.519085
	2.484847	2.509805
	2.483567	2.508205
	2.483887	2.506606
	2.485807	2.513005
	2.487407	2.508845
	2.491247	2.615398
	2.493806	2.508845
	2.497646	2.510765
	2.501166	2.514285
	2.501806	2.522604
	2.501806	2.522924
	2.503086	2.569641
	2.504366	2.511405
	2.504366	2.509165
	2.504046	2.517485
	2.504366	2.507885
	2.504366	2.515565
	2.504366	2.598119
	2.504686	2.499566
	2.505646	2.500206
	2.505006	2.504686
	2.505326	2.504686
	2.505646	2.508525
	2.505646	2.504686
	2.503726	2.505646
	2.503086	2.513005
	2.499886	2.510125
	2.498926	2.510765
	2.497966	2.515885
	2.496046	2.510445
	2.495086	2.509165
	2.494126	2.518445
	2.494446	2.509805
	2.494446	2.510445
	2.492847	2.513965
	2.492207	2.524204
	2.490927	2.508205
	2.489647	2.507885
	2.488687	2.509805
	2.487727	2.510765
	2.487087	2.516845
	2.486447	2.509165
	2.487407	2.511085
	2.489327	2.509165
	2.493167	2.505326
	2.497646	2.504366
	2.501486	2.509805
	2.507246	2.502766
	2.508525	2.504046
	2.511725	2.505326
	2.512045	2.507885
	2.511085	2.510765
	2.510765	2.519405
	2.507246	2.631077
	2.505326	2.520045
	2.502126	2.520685
	2.499886	2.520045
	2.497006	2.519725
	2.497646	2.517485
	2.496686	2.525484
	2.495726	2.513965
	2.497646	2.512365
	2.498286	2.513005
	2.499246	2.512045
	2.500526	2.512045
	2.503726	2.514285
	2.505006	2.581160
	2.506926	2.507246
	2.507565	2.505966
	2.509485	2.502126
	2.508525	2.498926
	2.508525	2.504366
	2.506606	2.509805
	2.505966	2.493806
	2.502446	2.495726
	2.501806	2.499246
	2.499246	2.502446
	2.498606	2.511725
	2.498926	2.583080
	2.497966	2.633636
	2.496366	2.513645
	2.496046	2.513005
	2.494446	2.516525
	2.493487	2.516205
	2.492527	2.517165
	2.490927	2.518445
	2.491247	2.524524
	2.490607	2.515885
	2.491567	2.513645
	2.495086	2.512365
	2.497006	2.513325
	2.500206	2.510445
	2.501806	2.515565
	2.503086	2.551722
	2.504046	2.507885
	2.504046	2.507565
	2.501486	2.511725
	2.498606	2.515565
	2.495406	2.521964
	2.494126	2.524524
	2.493487	2.625637
	2.492847	2.518765
	2.493806	2.516845
	2.496686	2.512365
	2.498606	2.511085
	2.501166	2.510445
	2.503406	2.511725
	2.504366	2.504046
	2.506606	2.505966
	2.505646	2.505966
	2.505966	2.507565
	2.505966	2.510125
	2.505646	2.512045
	2.505006	2.523564
	2.503726	2.574761
	2.502766	2.508205
	2.500206	2.509165
	2.499246	2.504686
	2.497326	2.506606
	2.551722	2.506286
	2.493487	2.562282
	2.492207	2.608998
	2.491567	2.545323
	2.491247	2.512685
	2.492207	2.516205
	2.491567	2.519085
	2.494446	2.525484
	2.494446	2.528684
	2.495726	2.590119
	2.495406	2.620197
	2.496686	2.554922
	2.497646	2.522284
	2.497646	2.519405
	2.591399	2.518125
	2.500846	2.517805
	2.521005	2.517165
	2.503406	2.513325
	2.502126	2.512045
	2.505326	2.514605
	2.505006	2.513965
	2.538603	2.515565
	2.543723	2.517805
	2.544683	2.521644
	2.501486	2.520685
	2.500206	2.515565
	2.497966	2.518445
	2.514925	2.510125
	2.510125	2.509485
	2.557162	2.511725
	2.507885	2.511405
	2.495086	2.518445
	2.495726	2.515245
	2.495086	2.513005

