LabVIEW Measurement	
Writer_Version	2
Reader_Version	2
Separator	Tab
Decimal_Separator	.
Multi_Headings	Yes
X_Columns	No
Time_Pref	Absolute
Operator	jerem
Date	2023/02/02
Time	11:32:12.264484530035116911
***End_of_Header***	
	
Channels	2		
Samples	6806	6806	
Date	2023/02/02	2023/02/02	
Time	11:32:12.264484530035116911	11:32:12.2644970297810521127	
Y_Unit_Label	Volts	Volts	
X_Dimension	Time	Time	
X0	0.0000000000000000E+0	0.0000000000000000E+0	
Delta_X	0.001000	0.001000	
***End_of_Header***			
X_Value	Voltage_0	Voltage_1	Comment
	2.495726	2.502766
	2.497326	2.501486
	2.500526	2.501166
	2.502446	2.499566
	2.506606	2.497006
	2.507246	2.495086
	2.507885	2.494126
	2.510125	2.491247
	2.511085	2.489967
	2.513645	2.488367
	2.514285	2.487727
	2.514605	2.488687
	2.515565	2.489007
	2.517485	2.489967
	2.518765	2.491567
	2.520365	2.492527
	2.520365	2.494446
	2.522924	2.495406
	2.522284	2.497006
	2.522924	2.497326
	2.521644	2.497646
	2.521005	2.498926
	2.519405	2.502126
	2.517165	2.504046
	2.512365	2.508205
	2.507246	2.513965
	2.504046	2.521005
	2.496686	2.530284
	2.490927	2.537963
	2.483567	2.547883
	2.481007	2.558762
	2.478128	2.569321
	2.476528	2.576680
	2.476528	2.584680
	2.480367	2.588520
	2.483567	2.591079
	2.492207	2.591079
	2.502126	2.589480
	2.513645	2.585320
	2.526124	2.578920
	2.534124	2.574121
	2.546603	2.565161
	2.558762	2.557162
	2.568681	2.547563
	2.576041	2.539883
	2.579560	2.530924
	2.582760	2.521644
	2.582440	2.513645
	2.579560	2.506286
	2.576041	2.499886
	2.573161	2.494446
	2.567081	2.489327
	2.561002	2.486127
	2.556202	2.482927
	2.553002	2.482927
	2.551402	2.482287
	2.549162	2.481647
	2.546283	2.481647
	2.543083	2.481647
	2.537963	2.478448
	2.535403	2.475568
	2.530284	2.470768
	2.523564	2.465968
	2.513965	2.461169
	2.505326	2.455089
	2.498926	2.450930
	2.490287	2.448690
	2.481327	2.447730
	2.473648	2.450930
	2.468528	2.453169
	2.464049	2.459249
	2.460529	2.466288
	2.457649	2.476208
	2.455729	2.484847
	2.453489	2.491567
	2.452849	2.496686
	2.453489	2.500526
	2.452849	2.500206
	2.454129	2.498286
	2.454769	2.493167
	2.455409	2.488047
	2.457329	2.481647
	2.460849	2.475248
	2.466608	2.470128
	2.471728	2.468528
	2.478448	2.466928
	2.487087	2.468848
	2.494766	2.472688
	2.502766	2.475888
	2.509165	2.480367
	2.516525	2.484847
	2.523884	2.487087
	2.527724	2.486767
	2.530924	2.484207
	2.532204	2.480367
	2.533164	2.473328
	2.531884	2.466608
	2.527084	2.458289
	2.522604	2.454449
	2.518445	2.452849
	2.510445	2.455409
	2.500846	2.464369
	2.491567	2.479408
	2.483567	2.498606
	2.478128	2.522284
	2.471408	2.546283
	2.467888	2.569001
	2.467568	2.588520
	2.468848	2.601959
	2.470448	2.607718
	2.476208	2.606438
	2.481647	2.598119
	2.484847	2.584040
	2.486767	2.566441
	2.487407	2.550762
	2.487087	2.536683
	2.483567	2.530284
	2.479728	2.532844
	2.477488	2.544043
	2.475888	2.566121
	2.474928	2.593959
	2.477168	2.624997
	2.482607	2.656675
	2.490927	2.681953
	2.496366	2.700192
	2.503726	2.708191
	2.510765	2.703711
	2.515245	2.689312
	2.516205	2.668194
	2.514925	2.640996
	2.509165	2.614118
	2.502766	2.591719
	2.496366	2.566761
	2.489647	2.548842
	2.487727	2.538923
	2.488687	2.536683
	2.495406	2.539883
	2.503726	2.546923
	2.513005	2.554922
	2.527404	2.563241
	2.539883	2.567081
	2.552042	2.565481
	2.560042	2.559402
	2.561642	2.548523
	2.560362	2.536043
	2.555882	2.523244
	2.547243	2.515245
	2.538923	2.510765
	2.532844	2.514605
	2.525164	2.525804
	2.520045	2.541163
	2.520045	2.561002
	2.521005	2.581480
	2.523244	2.600999
	2.528364	2.615398
	2.533164	2.621797
	2.537003	2.621477
	2.536043	2.612518
	2.536043	2.596839
	2.531884	2.577000
	2.525164	2.553962
	2.518445	2.531244
	2.510445	2.512365
	2.505966	2.496686
	2.501166	2.487087
	2.497326	2.480687
	2.495406	2.480047
	2.494446	2.481967
	2.494446	2.483887
	2.494446	2.487087
	2.494766	2.488047
	2.493487	2.487407
	2.490287	2.483887
	2.487087	2.478448
	2.481647	2.471408
	2.476528	2.465968
	2.469488	2.459569
	2.463729	2.455409
	2.460849	2.453489
	2.457649	2.451890
	2.456689	2.453489
	2.458289	2.455089
	2.460849	2.457649
	2.463089	2.458289
	2.468848	2.459889
	2.474608	2.459569
	2.480367	2.458289
	2.484207	2.456689
	2.489007	2.453489
	2.493487	2.449650
	2.493806	2.448050
	2.495726	2.446770
	2.496686	2.447730
	2.497326	2.449010
	2.497966	2.452529
	2.497326	2.457969
	2.498286	2.463729
	2.498606	2.473328
	2.499566	2.481327
	2.499246	2.489967
	2.498606	2.497326
	2.497646	2.505646
	2.497006	2.513325
	2.493487	2.520685
	2.491247	2.526124
	2.487087	2.532204
	2.481647	2.538603
	2.480047	2.543723
	2.474608	2.547883
	2.472048	2.553642
	2.470448	2.557162
	2.470128	2.561642
	2.470448	2.563881
	2.473008	2.566121
	2.476848	2.567721
	2.481647	2.568041
	2.487727	2.567081
	2.491567	2.563881
	2.497006	2.560362
	2.501806	2.557482
	2.505006	2.551722
	2.508845	2.546283
	2.511085	2.539883
	2.513005	2.533484
	2.514925	2.528364
	2.516205	2.524204
	2.517165	2.517485
	2.519405	2.512685
	2.522284	2.507565
	2.526124	2.505006
	2.528684	2.502446
	2.533164	2.501806
	2.536363	2.500206
	2.538603	2.501486
	2.541163	2.502126
	2.542123	2.502766
	2.542443	2.503406
	2.541803	2.504046
	2.539883	2.505646
	2.538283	2.506606
	2.537323	2.508525
	2.535403	2.509805
	2.532844	2.511405
	2.531884	2.513005
	2.530284	2.514605
	2.530284	2.517165
	2.528364	2.520045
	2.527404	2.522604
	2.525804	2.526124
	2.523244	2.529644
	2.519725	2.533164
	2.515565	2.534764
	2.512365	2.535723
	2.507565	2.534764
	2.503726	2.532524
	2.499566	2.529644
	2.494766	2.525484
	2.493167	2.521324
	2.489967	2.517165
	2.487407	2.512045
	2.485487	2.507565
	2.483887	2.503406
	2.483567	2.499566
	2.483247	2.496046
	2.483887	2.491567
	2.484847	2.488687
	2.485487	2.485487
	2.487727	2.489007
	2.488367	2.484527
	2.489007	2.469808
	2.491247	2.463089
	2.490607	2.457329
	2.490287	2.451890
	2.488687	2.489647
	2.486767	2.453489
	2.484847	2.460209
	2.484207	2.452529
	2.482287	2.467248
	2.481327	2.462769
	2.480687	2.471408
	2.482287	2.483247
	2.482927	2.493487
	2.485167	2.498286
	2.488367	2.490287
	2.490607	2.492847
	2.494126	2.492207
	2.495406	2.526764
	2.498606	2.495086
	2.500526	2.520685
	2.501166	2.490927
	2.501806	2.489007
	2.500846	2.492847
	2.501486	2.629157
	2.502126	2.493806
	2.501486	2.524844
	2.501806	2.509165
	2.501166	2.518445
	2.500526	2.521964
	2.501166	2.529324
	2.497966	2.614118
	2.497966	2.532524
	2.496366	2.533804
	2.494126	2.531564
	2.490927	2.527724
	2.488687	2.525804
	2.486767	2.524524
	2.485487	2.531244
	2.482927	2.520045
	2.482927	2.521644
	2.484207	2.518765
	2.485167	2.525164
	2.486767	2.529324
	2.489327	2.532524
	2.492207	2.553962
	2.495086	2.543723
	2.498606	2.543723
	2.500846	2.544363
	2.505006	2.541163
	2.507885	2.585000
	2.512365	2.543723
	2.513005	2.535723
	2.515885	2.521964
	2.516845	2.515885
	2.516205	2.510765
	2.516525	2.509485
	2.516845	2.523564
	2.516845	2.522604
	2.516525	2.576360
	2.516525	2.544363
	2.517165	2.522924
	2.518445	2.526124
	2.518765	2.530284
	2.520685	2.528684
	2.521324	2.526124
	2.521324	2.536043
	2.521644	2.514605
	2.521644	2.509805
	2.519085	2.506286
	2.514925	2.505646
	2.511085	2.504046
	2.507565	2.507885
	2.502766	2.522604
	2.497006	2.513325
	2.492847	2.520685
	2.490927	2.527084
	2.488687	2.531244
	2.489967	2.531564
	2.490607	2.533484
	2.495406	2.526124
	2.498926	2.521964
	2.500526	2.519085
	2.503406	2.509485
	2.506926	2.503406
	2.505966	2.501166
	2.505006	2.507565
	2.503406	2.495406
	2.502126	2.498926
	2.501166	2.497966
	2.499246	2.499886
	2.501806	2.503086
	2.504686	2.505966
	2.508525	2.501166
	2.514285	2.500206
	2.518445	2.498286
	2.521005	2.496366
	2.521005	2.497006
	2.520685	2.500526
	2.515565	2.532844
	2.508845	2.502446
	2.500206	2.507565
	2.493806	2.511405
	2.483247	2.516845
	2.475888	2.523564
	2.470768	2.634596
	2.470448	2.523244
	2.470128	2.522284
	2.474608	2.517485
	2.479728	2.512365
	2.486447	2.514285
	2.491567	2.523244
	2.494766	2.497966
	2.497966	2.493167
	2.498286	2.489007
	2.497006	2.486127
	2.496046	2.483887
	2.495406	2.481327
	2.493806	2.479408
	2.493806	2.474928
	2.494126	2.473328
	2.497646	2.472048
	2.500526	2.501166
	2.505966	2.483567
	2.509165	2.476208
	2.509485	2.482607
	2.509165	2.490607
	2.506286	2.499886
	2.502446	2.509485
	2.495726	2.523244
	2.488687	2.523244
	2.483887	2.527724
	2.478768	2.529004
	2.475248	2.528044
	2.475888	2.527724
	2.478448	2.545643
	2.480687	2.519085
	2.488047	2.517165
	2.496366	2.515245
	2.504686	2.516205
	2.510765	2.526764
	2.513005	2.517485
	2.516525	2.518125
	2.517485	2.518125
	2.516845	2.517165
	2.515565	2.511725
	2.514605	2.511085
	2.513645	2.498606
	2.513005	2.493806
	2.512045	2.488687
	2.513645	2.487407
	2.572521	2.489007
	2.515565	2.538923
	2.515885	2.494126
	2.514925	2.498286
	2.516205	2.505966
	2.527084	2.509485
	2.513005	2.518765
	2.503406	2.512365
	2.496366	2.510445
	2.493487	2.510765
	2.522604	2.504046
	2.498926	2.503406
	2.504686	2.506286
	2.495086	2.498606
	2.497006	2.500206
	2.499246	2.499566
	2.514285	2.503406
	2.507885	2.516525
	2.546603	2.509165
	2.529324	2.510445
	2.542763	2.511725
	2.513325	2.511405
	2.518445	2.511405
	2.515245	2.507885
	2.550442	2.506926
	2.515565	2.506606
	2.518445	2.507246
	2.514285	2.508845
	2.512045	2.518765
	2.545323	2.514285
	2.521644	2.517805
	2.515885	2.520685
	2.513965	2.523244
	2.514605	2.529004
	2.546283	2.539243
	2.515885	2.514605
	2.509805	2.509485
	2.507246	2.504686
	2.506926	2.501806
	2.530924	2.495086
	2.522924	2.495086
	2.500526	2.494766
	2.502766	2.498926
	2.496686	2.503726
	2.497966	2.514605
	2.565801	2.513325
	2.490927	2.517485
	2.487407	2.520045
	2.485167	2.521964
	2.513325	2.532204
	2.486767	2.519085
	2.478128	2.516205
	2.479088	2.513325
	2.478128	2.510765
	2.483887	2.550762
	2.496686	2.511085
	2.486127	2.511085
	2.490607	2.512685
	2.494126	2.515245
	2.505646	2.523564
	2.507246	2.518125
	2.506926	2.516845
	2.514285	2.516205
	2.518125	2.514605
	2.525804	2.515565
	2.533484	2.552362
	2.525484	2.509165
	2.526124	2.509165
	2.522924	2.509165
	2.524844	2.514285
	2.520365	2.526764
	2.510445	2.531564
	2.504686	2.525164
	2.507246	2.531244
	2.498286	2.544683
	2.497646	2.557162
	2.490927	2.545323
	2.488367	2.545643
	2.492207	2.545323
	2.488687	2.544363
	2.490927	2.551722
	2.485167	2.526444
	2.485167	2.518765
	2.488367	2.512685
	2.488687	2.508205
	2.498926	2.534124
	2.491247	2.495726
	2.494446	2.491247
	2.498286	2.490927
	2.502126	2.494766
	2.526124	2.502126
	2.507565	2.567081
	2.510445	2.489647
	2.510765	2.499566
	2.513005	2.488047
	2.510445	2.491567
	2.508845	2.546923
	2.508205	2.519085
	2.506286	2.486447
	2.506606	2.484847
	2.500846	2.509805
	2.499886	2.494126
	2.498286	2.500206
	2.497006	2.500846
	2.498926	2.511405
	2.495406	2.541803
	2.496686	2.510125
	2.497966	2.513005
	2.497646	2.512365
	2.542123	2.533164
	2.500846	2.520045
	2.500526	2.519725
	2.500846	2.500526
	2.503086	2.500206
	2.500526	2.544683
	2.500526	2.515245
	2.500846	2.500846
	2.500206	2.501486
	2.505966	2.503726
	2.501166	2.520685
	2.501166	2.507885
	2.501486	2.509485
	2.503086	2.509805
	2.561962	2.509485
	2.503086	2.512045
	2.504686	2.507246
	2.504686	2.502766
	2.507565	2.508845
	2.505326	2.514925
	2.504046	2.505966
	2.503726	2.500206
	2.504686	2.502126
	2.545643	2.505006
	2.502126	2.503406
	2.502126	2.500526
	2.503086	2.500846
	2.508205	2.505006
	2.504686	2.498606
	2.505646	2.498286
	2.506926	2.494446
	2.507885	2.494446
	2.524844	2.497646
	2.510125	2.496046
	2.508845	2.495086
	2.507565	2.497646
	2.522924	2.499246
	2.501486	2.504686
	2.499566	2.503726
	2.496046	2.506606
	2.497966	2.508205
	2.490287	2.511725
	2.487407	2.512365
	2.486447	2.512365
	2.485167	2.512365
	2.491887	2.512045
	2.482607	2.512045
	2.482927	2.509165
	2.483887	2.507246
	2.491887	2.504366
	2.485167	2.501166
	2.487727	2.498606
	2.490287	2.496366
	2.494126	2.495406
	2.496686	2.492847
	2.501486	2.490927
	2.508845	2.490607
	2.514605	2.491247
	2.556522	2.492847
	2.522284	2.493806
	2.524524	2.496686
	2.528684	2.501166
	2.523884	2.504366
	2.519085	2.508205
	2.513645	2.511725
	2.504686	2.516845
	2.501166	2.517805
	2.489967	2.521964
	2.483567	2.523244
	2.477488	2.524844
	2.474288	2.527404
	2.472048	2.528044
	2.473328	2.529324
	2.473648	2.528684
	2.477168	2.530284
	2.487407	2.530284
	2.484207	2.528684
	2.487407	2.526444
	2.489967	2.522924
	2.501166	2.517805
	2.492527	2.511405
	2.493487	2.503726
	2.493806	2.498606
	2.497006	2.490927
	2.494766	2.485487
	2.496046	2.481967
	2.497966	2.481647
	2.502446	2.482607
	2.502126	2.484207
	2.504046	2.487727
	2.507246	2.491887
	2.510765	2.497006
	2.511085	2.501166
	2.511405	2.504686
	2.511725	2.506926
	2.510765	2.508525
	2.507246	2.507246
	2.506286	2.505006
	2.503726	2.501486
	2.504366	2.497006
	2.514285	2.491887
	2.500846	2.488367
	2.503406	2.486127
	2.505326	2.486767
	2.505326	2.488367
	2.509165	2.491247
	2.511725	2.496046
	2.513005	2.503086
	2.531244	2.513645
	2.514285	2.521005
	2.513005	2.527404
	2.512685	2.532524
	2.510125	2.536043
	2.508845	2.534124
	2.507246	2.529644
	2.506606	2.523884
	2.506286	2.516205
	2.505326	2.508525
	2.506926	2.499886
	2.510445	2.492847
	2.524844	2.489327
	2.514925	2.487407
	2.517485	2.488367
	2.522604	2.490927
	2.523244	2.495086
	2.526444	2.500206
	2.526764	2.505006
	2.528044	2.509805
	2.527404	2.511405
	2.526124	2.512045
	2.522604	2.510125
	2.524204	2.506286
	2.514605	2.503726
	2.508205	2.501486
	2.501166	2.499566
	2.501166	2.498606
	2.488367	2.500846
	2.484527	2.504366
	2.482607	2.511085
	2.498286	2.518445
	2.478448	2.524524
	2.479088	2.531884
	2.480687	2.537003
	2.482607	2.539883
	2.488047	2.539563
	2.490287	2.537643
	2.497646	2.534124
	2.518445	2.527084
	2.497966	2.519725
	2.500526	2.511405
	2.498926	2.505326
	2.505006	2.499886
	2.504366	2.496366
	2.505966	2.496366
	2.512685	2.496366
	2.506606	2.500206
	2.507885	2.505646
	2.509805	2.511085
	2.532524	2.516525
	2.511725	2.522284
	2.513965	2.527084
	2.514925	2.529644
	2.520045	2.531884
	2.512685	2.531884
	2.509805	2.528684
	2.506926	2.524844
	2.504686	2.521005
	2.499566	2.514605
	2.496686	2.508845
	2.496686	2.505966
	2.491567	2.501166
	2.490927	2.498606
	2.490607	2.497646
	2.493806	2.500206
	2.496366	2.505006
	2.497966	2.511085
	2.501486	2.516845
	2.526444	2.523244
	2.508525	2.526444
	2.508525	2.527084
	2.511405	2.525804
	2.525164	2.520365
	2.503086	2.512365
	2.500526	2.503086
	2.533804	2.494126
	2.493167	2.484207
	2.491247	2.477808
	2.493806	2.475888
	2.488367	2.476848
	2.490927	2.481647
	2.492527	2.489327
	2.499886	2.499566
	2.514605	2.510765
	2.507246	2.518765
	2.509165	2.525804
	2.515245	2.529324
	2.509165	2.526444
	2.509485	2.520685
	2.514285	2.512045
	2.502126	2.501486
	2.499566	2.490607
	2.495406	2.482287
	2.490927	2.477808
	2.489327	2.478128
	2.537323	2.482287
	2.491567	2.492847
	2.495086	2.504686
	2.495726	2.517485
	2.500846	2.528364
	2.510445	2.537323
	2.535403	2.539883
	2.509165	2.538923
	2.512365	2.532204
	2.515245	2.521324
	2.524524	2.509165
	2.530284	2.496366
	2.503086	2.485167
	2.501806	2.478128
	2.547243	2.477168
	2.493487	2.480047
	2.495086	2.487407
	2.507565	2.497646
	2.503406	2.510125
	2.504686	2.521644
	2.520365	2.529964
	2.565801	2.533804
	2.511725	2.535083
	2.516205	2.530284
	2.538603	2.523884
	2.505966	2.515885
	2.504686	2.507246
	2.501166	2.499566
	2.497966	2.495086
	2.491247	2.495086
	2.488047	2.496046
	2.495406	2.501486
	2.488367	2.507246
	2.491887	2.513325
	2.497006	2.519405
	2.498286	2.523564
	2.499566	2.525164
	2.504686	2.523884
	2.505326	2.518765
	2.505006	2.512685
	2.504686	2.505326
	2.509805	2.497966
	2.503086	2.492527
	2.503406	2.485167
	2.506606	2.486127
	2.504046	2.487727
	2.505966	2.490607
	2.509805	2.493487
	2.521005	2.497646
	2.513965	2.498606
	2.518765	2.500526
	2.519725	2.499886
	2.521644	2.499886
	2.521644	2.498286
	2.523564	2.494766
	2.520045	2.493167
	2.518765	2.491247
	2.515245	2.491567
	2.514285	2.493806
	2.507885	2.496686
	2.507246	2.500846
	2.508525	2.504366
	2.505006	2.508205
	2.504686	2.509165
	2.505006	2.510765
	2.504366	2.511085
	2.504366	2.510445
	2.503086	2.508525
	2.501806	2.506606
	2.499246	2.505966
	2.498606	2.504366
	2.494446	2.503406
	2.491247	2.502126
	2.488047	2.503726
	2.488047	2.505966
	2.485807	2.506606
	2.487087	2.507246
	2.487407	2.507885
	2.490287	2.508205
	2.493167	2.507885
	2.493806	2.505646
	2.496046	2.504046
	2.498286	2.504046
	2.499886	2.502766
	2.499566	2.501806
	2.500206	2.499886
	2.499246	2.499886
	2.502126	2.498926
	2.500526	2.499566
	2.501486	2.499246
	2.502766	2.499566
	2.502766	2.500846
	2.504686	2.502446
	2.505966	2.504366
	2.506286	2.505006
	2.505646	2.506286
	2.506286	2.509805
	2.505646	2.512365
	2.504686	2.514605
	2.505326	2.517165
	2.504366	2.519405
	2.503726	2.520365
	2.503086	2.520045
	2.503406	2.520685
	2.501486	2.520045
	2.500846	2.518125
	2.499886	2.516525
	2.497326	2.517485
	2.496366	2.518445
	2.496046	2.519085
	2.496366	2.522284
	2.497646	2.523564
	2.499886	2.525484
	2.499246	2.527084
	2.501166	2.528044
	2.504046	2.528044
	2.503086	2.527404
	2.503406	2.525164
	2.504366	2.521964
	2.503726	2.519085
	2.503086	2.515245
	2.503726	2.513005
	2.505646	2.513005
	2.508525	2.513005
	2.510445	2.515565
	2.515565	2.517165
	2.520685	2.520365
	2.523244	2.520685
	2.525804	2.521324
	2.524204	2.521644
	2.521005	2.519725
	2.517485	2.516845
	2.511405	2.514605
	2.504046	2.510445
	2.501486	2.508525
	2.497326	2.505966
	2.495086	2.507246
	2.496366	2.507885
	2.496686	2.508845
	2.500206	2.510765
	2.501806	2.511725
	2.505326	2.510445
	2.506926	2.505326
	2.506926	2.499886
	2.504686	2.492847
	2.502126	2.485487
	2.498606	2.479728
	2.495406	2.474928
	2.491887	2.474928
	2.492207	2.477488
	2.492527	2.482607
	2.494126	2.492207
	2.497646	2.500206
	2.500526	2.508845
	2.502446	2.515565
	2.503726	2.600999
	2.504366	2.521005
	2.503406	2.518765
	2.500206	2.608998
	2.497646	2.508525
	2.494446	2.522284
	2.492527	2.562601
	2.491247	2.489967
	2.492527	2.488687
	2.494766	2.516205
	2.498606	2.491247
	2.504686	2.539883
	2.508525	2.525164
	2.510765	2.500846
	2.514285	2.566441
	2.516205	2.529644
	2.516205	2.505006
	2.514285	2.532204
	2.512045	2.512685
	2.509805	2.505006
	2.507885	2.511405
	2.505006	2.514925
	2.505006	2.520045
	2.505646	2.503406
	2.505646	2.518125
	2.506286	2.505966
	2.506606	2.508525
	2.505326	2.514605
	2.505326	2.506606
	2.504046	2.509485
	2.503726	2.543403
	2.504046	2.508845
	2.504046	2.507246
	2.504046	2.562282
	2.505326	2.504046
	2.507565	2.506286
	2.508525	2.500846
	2.510445	2.505646
	2.509165	2.510765
	2.507885	2.661794
	2.505326	2.517805
	2.505006	2.520685
	2.502446	2.522284
	2.500846	2.526444
	2.498606	2.527404
	2.497966	2.526444
	2.497646	2.527724
	2.497326	2.527724
	2.497326	2.521964
	2.497966	2.522604
	2.496046	2.527724
	2.495726	2.522284
	2.493806	2.524204
	2.493806	2.546923
	2.492207	2.526124
	2.490607	2.526764
	2.490927	2.591399
	2.491567	2.524844
	2.490607	2.522924
	2.492207	2.520685
	2.493487	2.518765
	2.495726	2.516205
	2.498606	2.512685
	2.498606	2.513005
	2.498926	2.521644
	2.497966	2.512365
	2.495726	2.513645
	2.495406	2.517485
	2.493806	2.515565
	2.493806	2.516525
	2.490927	2.526444
	2.490607	2.515885
	2.489007	2.515565
	2.490607	2.514285
	2.489327	2.514605
	2.489967	2.514285
	2.491247	2.513645
	2.491247	2.514285
	2.491247	2.517485
	2.492207	2.514285
	2.493487	2.515885
	2.494446	2.518765
	2.495086	2.515565
	2.496686	2.514605
	2.498926	2.522284
	2.500846	2.512045
	2.503406	2.508205
	2.504366	2.563241
	2.505966	2.499246
	2.508845	2.496046
	2.510125	2.489647
	2.513005	2.485167
	2.515245	2.481647
	2.516845	2.478448
	2.520045	2.475888
	2.521005	2.479408
	2.521324	2.474928
	2.522604	2.473648
	2.521644	2.581160
	2.521964	2.475888
	2.521324	2.476528
	2.519725	2.476208
	2.518445	2.473968
	2.516845	2.474608
	2.516205	2.472368
	2.515565	2.481327
	2.512685	2.478448
	2.510765	2.473648
	2.508205	2.477808
	2.507565	2.478448
	2.502126	2.483887
	2.499566	2.487407
	2.498286	2.491247
	2.495086	2.492847
	2.492847	2.496686
	2.490927	2.494766
	2.490287	2.496366
	2.489007	2.500846
	2.489007	2.492527
	2.488367	2.490607
	2.487727	2.489327
	2.486447	2.489007
	2.486447	2.488047
	2.486447	2.486447
	2.487407	2.487407
	2.487407	2.506926
	2.489007	2.489647
	2.489647	2.489007
	2.491247	2.488367
	2.497646	2.488367
	2.494766	2.487407
	2.496366	2.485167
	2.497326	2.483247
	2.498286	2.487727
	2.500206	2.478768
	2.499566	2.477488
	2.500526	2.476848
	2.500846	2.477808
	2.499886	2.481647
	2.500526	2.485167
	2.500846	2.488047
	2.501486	2.524204
	2.502126	2.496366
	2.501806	2.498286
	2.502446	2.500526
	2.585960	2.503406
	2.507885	2.504686
	2.503726	2.503406
	2.503086	2.504046
	2.512685	2.504686
	2.523564	2.505326
	2.501486	2.506926
	2.500526	2.508525
	2.507885	2.509165
	2.523884	2.517165
	2.592679	2.509805
	2.503086	2.507565
	2.532524	2.505966
	2.535083	2.504046
	2.509805	2.502446
	2.518765	2.498926
	2.511725	2.497006
	2.522924	2.497006
	2.527084	2.497646
	2.512045	2.499566
	2.539883	2.501806
	2.630117	2.503406
	2.506606	2.515885
	2.512045	2.507885
	2.501166	2.508845
	2.501166	2.508525
	2.507885	2.509165
	2.499566	2.512365
	2.498606	2.509165
	2.493806	2.508525
	2.497006	2.507885
	2.498926	2.507565
	2.488367	2.508845
	2.487407	2.508525
	2.574441	2.508845
	2.482927	2.509485
	2.488367	2.511405
	2.485487	2.510765
	2.493806	2.513645
	2.535403	2.514925
	2.488367	2.569641
	2.491567	2.515885
	2.489007	2.515885
	2.491887	2.514925
	2.509165	2.514285
	2.489327	2.513325
	2.490287	2.510445
	2.490927	2.511085
	2.494446	2.511405
	2.501486	2.511405
	2.497326	2.515885
	2.500206	2.515245
	2.501806	2.517485
	2.505006	2.519405
	2.519085	2.519725
	2.506606	2.523564
	2.510765	2.516205
	2.511725	2.513645
	2.514925	2.511405
	2.522604	2.509165
	2.518765	2.512045
	2.520045	2.507885
	2.522284	2.506606
	2.521964	2.507246
	2.528684	2.508845
	2.521005	2.519085
	2.520365	2.509805
	2.519405	2.508205
	2.518445	2.504366
	2.522604	2.498286
	2.518125	2.495406
	2.516845	2.488047
	2.517165	2.483567
	2.515885	2.479728
	2.516845	2.478768
	2.512045	2.487087
	2.509485	2.477808
	2.505966	2.477488
	2.503406	2.478128
	2.505326	2.478448
	2.499246	2.511725
	2.496366	2.480047
	2.494126	2.481647
	2.490927	2.485167
	2.507246	2.488367
	2.487087	2.532844
	2.488047	2.501486
	2.481647	2.506926
	2.480367	2.513005
	2.496686	2.519725
	2.479408	2.524204
	2.480047	2.527084
	2.479088	2.530604
	2.480687	2.528684
	2.482287	2.529964
	2.485167	2.528044
	2.488047	2.528044
	2.491887	2.529324
	2.496046	2.527084
	2.497966	2.527404
	2.500846	2.527404
	2.512045	2.528044
	2.510125	2.574761
	2.514925	2.528364
	2.518445	2.528684
	2.519725	2.526124
	2.623077	2.523244
	2.522284	2.520045
	2.521644	2.517805
	2.520685	2.514925
	2.518765	2.510445
	2.515565	2.506606
	2.511405	2.504046
	2.510765	2.504366
	2.507885	2.663074
	2.504046	2.506926
	2.503086	2.507246
	2.502126	2.510445
	2.536683	2.509165
	2.499566	2.511725
	2.501486	2.509165
	2.498606	2.512365
	2.498286	2.500526
	2.497646	2.494446
	2.496366	2.488367
	2.499886	2.482927
	2.496366	2.481327
	2.495726	2.476848
	2.495406	2.477488
	2.497646	2.477488
	2.496686	2.479408
	2.496686	2.482287
	2.498926	2.485807
	2.498606	2.504366
	2.497646	2.491567
	2.496366	2.493806
	2.495406	2.493806
	2.495086	2.495406
	2.492527	2.497006
	2.491567	2.499246
	2.486767	2.533484
	2.484527	2.506926
	2.482927	2.511085
	2.481647	2.514605
	2.489327	2.519085
	2.480047	2.522604
	2.481327	2.524204
	2.480687	2.531564
	2.482287	2.527404
	2.484847	2.527404
	2.487727	2.525484
	2.592999	2.523564
	2.494766	2.521644
	2.499246	2.519085
	2.500526	2.525804
	2.504686	2.516525
	2.508205	2.514605
	2.511405	2.512685
	2.513325	2.511405
	2.515565	2.510445
	2.517485	2.508205
	2.517165	2.521005
	2.518445	2.507246
	2.517165	2.507885
	2.515565	2.509805
	2.513965	2.512365
	2.512045	2.514925
	2.511085	2.516845
	2.504046	2.530924
	2.500846	2.523884
	2.496366	2.527404
	2.491247	2.529324
	2.487407	2.530284
	2.484207	2.530924
	2.504686	2.531564
	2.479728	2.530284
	2.477808	2.528364
	2.477168	2.537323
	2.476848	2.524524
	2.477808	2.521644
	2.479408	2.521324
	2.481007	2.519085
	2.483887	2.519085
	2.489327	2.519085
	2.491247	2.613478
	2.497966	2.521005
	2.505006	2.523564
	2.510765	2.522284
	2.514605	2.520365
	2.520045	2.518125
	2.553002	2.513645
	2.528044	2.508205
	2.530604	2.505006
	2.530924	2.506286
	2.531564	2.498926
	2.532524	2.500526
	2.531244	2.500526
	2.530284	2.504686
	2.529644	2.509165
	2.585320	2.512685
	2.529324	2.516205
	2.528044	2.516205
	2.527084	2.526444
	2.524524	2.515885
	2.522284	2.513325
	2.520365	2.507565
	2.518445	2.502446
	2.516845	2.497966
	2.515565	2.494446
	2.514285	2.492847
	2.515245	2.492847
	2.513965	2.508845
	2.514285	2.499246
	2.514605	2.508525
	2.514285	2.509165
	2.513645	2.513645
	2.512685	2.514285
	2.509485	2.512365
	2.509485	2.507885
	2.514285	2.502126
	2.504046	2.494446
	2.501806	2.487407
	2.500526	2.501486
	2.499246	2.476208
	2.499246	2.475248
	2.499566	2.474928
	2.498606	2.480687
	2.499246	2.486447
	2.498286	2.491567
	2.496686	2.497006
	2.505006	2.500846
	2.491567	2.503086
	2.492207	2.501806
	2.489327	2.512685
	2.488047	2.496686
	2.485807	2.496366
	2.485487	2.493487
	2.485487	2.494126
	2.485807	2.497006
	2.487727	2.501806
	2.487727	2.509165
	2.536363	2.515565
	2.490287	2.521964
	2.493806	2.527084
	2.491887	2.530604
	2.493806	2.532204
	2.495726	2.535723
	2.495726	2.527724
	2.497966	2.524524
	2.498606	2.517805
	2.499246	2.512045
	2.499886	2.504686
	2.499886	2.500846
	2.500526	2.497966
	2.548523	2.495726
	2.499886	2.496046
	2.504366	2.497966
	2.500206	2.501166
	2.499246	2.505646
	2.497966	2.519405
	2.496046	2.514605
	2.496046	2.520365
	2.494446	2.521005
	2.493487	2.523884
	2.492847	2.525164
	2.490927	2.525804
	2.490607	2.525484
	2.489647	2.525164
	2.488367	2.525484
	2.514605	2.526124
	2.486447	2.529004
	2.488047	2.529324
	2.487087	2.530604
	2.488367	2.531884
	2.488367	2.552042
	2.491247	2.534124
	2.493806	2.535403
	2.495086	2.532844
	2.498286	2.530284
	2.500846	2.528364
	2.503726	2.524844
	2.507246	2.520685
	2.508845	2.514925
	2.512045	2.509165
	2.513645	2.505326
	2.516205	2.500526
	2.535083	2.496046
	2.520045	2.492847
	2.524204	2.491247
	2.524204	2.487407
	2.525484	2.488047
	2.525484	2.632996
	2.528364	2.490287
	2.527724	2.495726
	2.525804	2.497006
	2.525484	2.502446
	2.525484	2.505966
	2.522604	2.510445
	2.520365	2.514285
	2.516845	2.517485
	2.513005	2.520045
	2.510445	2.522604
	2.505966	2.525164
	2.500846	2.527724
	2.497326	2.529964
	2.493806	2.530604
	2.491887	2.531884
	2.572841	2.532524
	2.487727	2.533804
	2.497006	2.532844
	2.488047	2.530284
	2.490287	2.528364
	2.490927	2.593319
	2.495086	2.521324
	2.497326	2.525804
	2.499246	2.509805
	2.501486	2.512045
	2.505006	2.497646
	2.506286	2.494126
	2.508845	2.485487
	2.511405	2.482927
	2.512365	2.479728
	2.514285	2.477808
	2.516205	2.477488
	2.517805	2.478448
	2.519405	2.479088
	2.520685	2.481647
	2.521964	2.483887
	2.523564	2.484527
	2.526124	2.485807
	2.526764	2.488367
	2.525804	2.488367
	2.528044	2.488047
	2.526764	2.488047
	2.524844	2.488687
	2.523564	2.490287
	2.521644	2.492847
	2.517485	2.494446
	2.540843	2.496366
	2.513645	2.501166
	2.603239	2.503086
	2.510765	2.505326
	2.612838	2.507565
	2.505326	2.508845
	2.512045	2.510445
	2.502766	2.510445
	2.503406	2.510445
	2.499886	2.528684
	2.503406	2.509165
	2.495406	2.564521
	2.496046	2.508845
	2.491567	2.655715
	2.492527	2.508525
	2.490927	2.536363
	2.489967	2.510125
	2.490287	2.583400
	2.491887	2.512365
	2.492207	2.626917
	2.494766	2.513005
	2.493167	2.549482
	2.495086	2.513005
	2.495726	2.532204
	2.497326	2.513005
	2.497966	2.527404
	2.500206	2.512365
	2.500206	2.535723
	2.502766	2.513965
	2.503726	2.527084
	2.504686	2.514925
	2.505646	2.531564
	2.505646	2.518125
	2.504686	2.527084
	2.504686	2.518125
	2.501806	2.543403
	2.500206	2.519085
	2.500206	2.534764
	2.500846	2.519085
	2.501166	2.549802
	2.501166	2.521964
	2.502766	2.590119
	2.507246	2.524524
	2.506926	2.656995
	2.514285	2.524844
	2.512045	2.561002
	2.516525	2.524204
	2.513645	2.619877
	2.514285	2.517805
	2.511405	2.515885
	2.513325	2.509485
	2.505646	2.634916
	2.551402	2.502126
	2.502766	2.498286
	2.538923	2.496046
	2.501166	2.525804
	2.529324	2.494766
	2.500846	2.494446
	2.614118	2.495406
	2.504366	2.496046
	2.537003	2.495726
	2.506286	2.494446
	2.508205	2.521005
	2.507246	2.491567
	2.509485	2.514285
	2.509165	2.488367
	2.507885	2.490607
	2.506606	2.485487
	2.505966	2.509805
	2.505966	2.488367
	2.505006	2.496046
	2.505646	2.496686
	2.505006	2.503406
	2.505326	2.559082
	2.504686	2.512045
	2.505006	2.517165
	2.504686	2.518765
	2.504686	2.540203
	2.502766	2.522284
	2.502126	2.523244
	2.499566	2.523564
	2.498286	2.534764
	2.497006	2.529324
	2.495406	2.552042
	2.494126	2.535403
	2.495726	2.611558
	2.497006	2.541163
	2.498926	2.613158
	2.499566	2.544043
	2.529644	2.546923
	2.502126	2.551402
	2.516525	2.545003
	2.502766	2.625317
	2.501166	2.598119
	2.500526	2.529644
	2.499246	2.527724
	2.498286	2.532524
	2.497646	2.517485
	2.497646	2.584040
	2.497646	2.511405
	2.498606	2.511405
	2.498286	2.508525
	2.499246	2.511725
	2.498926	2.506286
	2.498926	2.507565
	2.499566	2.503406
	2.496686	2.501806
	2.496046	2.498606
	2.493806	2.495406
	2.492527	2.495086
	2.489967	2.488047
	2.488047	2.476848
	2.494446	2.475888
	2.487087	2.483567
	2.638756	2.472048
	2.486447	2.469488
	2.604838	2.479088
	2.489647	2.472048
	2.489647	2.516205
	2.491567	2.471728
	2.492527	2.472368
	2.492847	2.473328
	2.495086	2.470768
	2.496686	2.470128
	2.497326	2.477488
	2.498926	2.467568
	2.501166	2.466288
	2.504046	2.462449
	2.506606	2.462449
	2.516845	2.463409
	2.519085	2.465329
	2.526124	2.472368
	2.535403	2.471408
	2.545003	2.477808
	2.557482	2.478128
	2.568041	2.545003
	2.575401	2.486447
	2.583720	2.493487
	2.589800	2.491567
	2.591399	2.492847
	2.590119	2.494446
	2.588520	2.490927
	2.584680	2.496366
	2.571881	2.497966
	2.573481	2.500206
	2.549802	2.500206
	2.537963	2.504366
	2.525804	2.505006
	2.515245	2.521324
	2.505006	2.509165
	2.500206	2.510765
	2.496366	2.511085
	2.493806	2.510765
	2.492847	2.509485
	2.495086	2.505966
	2.496686	2.505646
	2.499566	2.501486
	2.519725	2.499566
	2.506286	2.496046
	2.509485	2.524524
	2.512365	2.492207
	2.514925	2.497646
	2.516845	2.488367
	2.520365	2.488687
	2.520685	2.490927
	2.521644	2.491887
	2.522924	2.492847
	2.522284	2.494446
	2.527084	2.497326
	2.520045	2.500526
	2.517485	2.504046
	2.514605	2.505966
	2.511405	2.512685
	2.507885	2.512365
	2.504686	2.516205
	2.503406	2.518445
	2.499566	2.522604
	2.496686	2.526124
	2.493167	2.529964
	2.506286	2.536043
	2.491247	2.533804
	2.489327	2.536683
	2.487727	2.536043
	2.488047	2.541803
	2.488047	2.536043
	2.488047	2.537323
	2.488047	2.536683
	2.488687	2.537323
	2.489007	2.537643
	2.490607	2.538923
	2.600039	2.543403
	2.492207	2.542763
	2.495406	2.544683
	2.496366	2.544043
	2.499566	2.545643
	2.500526	2.544043
	2.503086	2.543083
	2.503406	2.540843
	2.505966	2.538923
	2.511085	2.537963
	2.508205	2.535083
	2.508845	2.532844
	2.509805	2.530924
	2.509165	2.555882
	2.510765	2.530924
	2.511725	2.530924
	2.512365	2.543403
	2.513005	2.534444
	2.524524	2.536683
	2.513965	2.536363
	2.514605	2.535403
	2.514605	2.534444
	2.513005	2.531244
	2.512685	2.526764
	2.512045	2.521964
	2.511405	2.519085
	2.508845	2.513965
	2.529324	2.508525
	2.507246	2.502126
	2.506926	2.498926
	2.507246	2.495086
	2.508205	2.492527
	2.509805	2.488687
	2.511725	2.486767
	2.513325	2.486767
	2.514925	2.484207
	2.589800	2.482287
	2.517165	2.481967
	2.517805	2.482927
	2.519085	2.482927
	2.517485	2.482927
	2.517805	2.487407
	2.514925	2.488367
	2.523884	2.492207
	2.513005	2.496686
	2.511085	2.500526
	2.508205	2.506286
	2.506926	2.510445
	2.505646	2.515245
	2.503726	2.517485
	2.504046	2.520685
	2.500526	2.521644
	2.500206	2.522604
	2.498926	2.521005
	2.499886	2.520045
	2.499246	2.520365
	2.497966	2.518125
	2.501166	2.516525
	2.497646	2.515885
	2.496046	2.514925
	2.497006	2.514285
	2.496366	2.514925
	2.496366	2.516525
	2.494126	2.516845
	2.497966	2.518445
	2.493167	2.520365
	2.493167	2.519725
	2.491887	2.521644
	2.490287	2.518765
	2.493167	2.518445
	2.498286	2.518125
	2.572201	2.517485
	2.515565	2.515885
	2.495406	2.514605
	2.538923	2.515245
	2.501486	2.513965
	2.592679	2.514285
	2.517165	2.511725
	2.566441	2.514925
	2.552042	2.516845
	2.513325	2.527724
	2.522284	2.516845
	2.511725	2.516845
	2.529004	2.517485
	2.515565	2.515885
	2.506926	2.515245
	2.521964	2.514285
	2.501166	2.511725
	2.505966	2.510765
	2.498606	2.509165
	2.528684	2.510125
	2.501806	2.510125
	2.494766	2.520045
	2.504366	2.511725
	2.494446	2.512045
	2.512045	2.512365
	2.494766	2.512045
	2.503726	2.511725
	2.499246	2.510125
	2.495086	2.507565
	2.503086	2.504686
	2.496686	2.502446
	2.501486	2.500526
	2.500206	2.498606
	2.499566	2.497646
	2.504366	2.495406
	2.502766	2.495406
	2.509165	2.496366
	2.505646	2.496686
	2.506926	2.497966
	2.511085	2.498286
	2.511085	2.498286
	2.514285	2.497966
	2.513645	2.497006
	2.516205	2.496046
	2.515885	2.495086
	2.516205	2.536043
	2.517165	2.491247
	2.513965	2.489967
	2.520685	2.489007
	2.514925	2.488687
	2.512685	2.488367
	2.512045	2.488367
	2.512365	2.489327
	2.530284	2.490607
	2.514285	2.493806
	2.600359	2.494446
	2.517485	2.496366
	2.517805	2.498606
	2.555882	2.500846
	2.520685	2.502446
	2.521324	2.504046
	2.520365	2.506286
	2.518125	2.509805
	2.522924	2.512685
	2.513645	2.518445
	2.509805	2.523884
	2.508845	2.532204
	2.505966	2.540843
	2.507246	2.546923
	2.503726	2.554282
	2.501486	2.560362
	2.502766	2.565161
	2.503086	2.569001
	2.503086	2.568041
	2.501806	2.567721
	2.502126	2.561642
	2.500526	2.558122
	2.500206	2.554282
	2.503726	2.546923
	2.498286	2.541163
	2.497646	2.534124
	2.496046	2.527404
	2.495406	2.521005
	2.527404	2.516205
	2.496046	2.511405
	2.497646	2.508845
	2.497966	2.505326
	2.499886	2.504046
	2.510445	2.501166
	2.503726	2.500206
	2.506286	2.495726
	2.505646	2.492847
	2.506286	2.496686
	2.506606	2.486767
	2.505326	2.482607
	2.505006	2.479408
	2.504686	2.476208
	2.504046	2.473968
	2.503726	2.473648
	2.505326	2.473328
	2.503726	2.474608
	2.512365	2.475568
	2.504366	2.477168
	2.504366	2.480047
	2.503726	2.480687
	2.500846	2.481647
	2.502126	2.482287
	2.497966	2.481007
	2.496046	2.482607
	2.494766	2.480687
	2.493487	2.479728
	2.490287	2.478448
	2.490287	2.478768
	2.489007	2.478448
	2.501806	2.480047
	2.487727	2.482287
	2.486127	2.483247
	2.485487	2.486447
	2.482927	2.487087
	2.484847	2.488047
	2.480047	2.489647
	2.476848	2.491567
	2.473008	2.491247
	2.470768	2.492207
	2.467568	2.493806
	2.465968	2.494126
	2.462129	2.495406
	2.461489	2.497646
	2.458609	2.530924
	2.457009	2.505966
	2.456049	2.509805
	2.455729	2.514605
	2.455089	2.519725
	2.454129	2.525164
	2.454449	2.529004
	2.455089	2.532524
	2.454769	2.535403
	2.453489	2.538283
	2.454129	2.539243
	2.456049	2.539883
	2.457969	2.539243
	2.458609	2.537963
	2.465009	2.536683
	2.471408	2.532524
	2.479408	2.529324
	2.485807	2.526124
	2.494446	2.522284
	2.504366	2.517485
	2.514285	2.514605
	2.521644	2.533484
	2.527404	2.504686
	2.533164	2.500206
	2.537323	2.497326
	2.540523	2.492847
	2.543083	2.490287
	2.543403	2.487087
	2.544363	2.485487
	2.545643	2.488687
	2.545643	2.483247
	2.548203	2.484527
	2.548842	2.486127
	2.550122	2.490287
	2.551082	2.493487
	2.552042	2.498606
	2.552362	2.502126
	2.553322	2.509485
	2.552362	2.508525
	2.553962	2.511085
	2.555562	2.513005
	2.555562	2.514925
	2.555242	2.516845
	2.557802	2.521644
	2.559402	2.523564
	2.558762	2.555562
	2.558442	2.529964
	2.558442	2.533804
	2.553002	2.536363
	2.548842	2.541483
	2.540843	2.544363
	2.536683	2.547243
	2.529324	2.549162
	2.522284	2.545963
	2.515245	2.550442
	2.510445	2.549162
	2.505326	2.546603
	2.504046	2.543723
	2.502126	2.539243
	2.500846	2.533804
	2.500846	2.528044
	2.502126	2.522284
	2.504046	2.517485
	2.505646	2.512045
	2.506926	2.506286
	2.508845	2.501806
	2.509485	2.496686
	2.509805	2.501166
	2.512365	2.490287
	2.515565	2.488687
	2.519725	2.486447
	2.515885	2.485487
	2.516845	2.486767
	2.517485	2.486447
	2.517805	2.487727
	2.517485	2.491567
	2.516525	2.494446
	2.515245	2.497646
	2.513645	2.520045
	2.512365	2.504686
	2.509805	2.507565
	2.509805	2.509485
	2.507246	2.511085
	2.509165	2.512685
	2.513005	2.515245
	2.515885	2.516525
	2.522604	2.518125
	2.528684	2.519085
	2.537323	2.521644
	2.547563	2.523244
	2.556842	2.524844
	2.562601	2.525804
	2.569641	2.525164
	2.575721	2.523244
	2.578920	2.521005
	2.579240	2.518765
	2.579240	2.513965
	2.577960	2.509485
	2.575401	2.508845
	2.569961	2.501806
	2.568361	2.498606
	2.565481	2.497646
	2.559722	2.493806
	2.556202	2.494126
	2.551082	2.493167
	2.548203	2.493167
	2.543403	2.493806
	2.537323	2.494446
	2.530924	2.494446
	2.524204	2.494446
	2.519085	2.496046
	2.510765	2.497966
	2.502766	2.588200
	2.495726	2.498606
	2.489647	2.500206
	2.486767	2.502446
	2.483567	2.505006
	2.481647	2.505966
	2.479088	2.507565
	2.479088	2.508845
	2.480687	2.509805
	2.481647	2.510445
	2.482607	2.509805
	2.484527	2.509165
	2.485487	2.509805
	2.486127	2.510125
	2.485807	2.511085
	2.486767	2.513965
	2.484527	2.516525
	2.485167	2.521324
	2.485807	2.525804
	2.484847	2.529644
	2.484207	2.535083
	2.482927	2.537963
	2.481647	2.540203
	2.480687	2.542443
	2.480687	2.541803
	2.478448	2.541163
	2.477808	2.540203
	2.476208	2.539563
	2.476528	2.539563
	2.476208	2.583720
	2.478448	2.541163
	2.480687	2.543403
	2.483887	2.557802
	2.488047	2.547883
	2.494126	2.550762
	2.499566	2.562282
	2.509805	2.552042
	2.516845	2.548203
	2.523244	2.553962
	2.530284	2.537963
	2.537643	2.530924
	2.543723	2.524844
	2.548523	2.514925
	2.552042	2.508205
	2.556522	2.503086
	2.561962	2.496046
	2.567081	2.492847
	2.575721	2.489967
	2.577960	2.484847
	2.583720	2.481007
	2.589480	2.478448
	2.594279	2.472368
	2.595879	2.465009
	2.597479	2.460849
	2.596519	2.455089
	2.592039	2.450290
	2.590119	2.448370
	2.586600	2.444850
	2.580840	2.445490
	2.574761	2.452209
	2.567721	2.454129
	2.561002	2.458929
	2.557482	2.471408
	2.551402	2.471728
	2.544683	2.478128
	2.541483	2.491247
	2.536683	2.483567
	2.534444	2.485167
	2.529324	2.490927
	2.525804	2.485167
	2.523884	2.484207
	2.522284	2.483247
	2.521324	2.483247
	2.521005	2.482287
	2.520365	2.481967
	2.521324	2.482927
	2.524524	2.482927
	2.525804	2.481967
	2.528364	2.480367
	2.531884	2.479088
	2.535083	2.475568
	2.538283	2.473648
	2.539563	2.468848
	2.540203	2.466928
	2.544683	2.464689
	2.539883	2.462129
	2.536683	2.460849
	2.535723	2.461489
	2.533804	2.461169
	2.530924	2.463089
	2.528364	2.464689
	2.526124	2.466608
	2.525164	2.468208
	2.523244	2.482287
	2.521644	2.472688
	2.522284	2.474608
	2.519085	2.475888
	2.518445	2.474928
	2.515885	2.477168
	2.513645	2.477808
	2.511085	2.479088
	2.507885	2.481007
	2.505326	2.481007
	2.528684	2.483887
	2.501166	2.487087
	2.498926	2.489327
	2.497966	2.491887
	2.496366	2.495086
	2.493806	2.499246
	2.491887	2.512685
	2.491247	2.506606
	2.488687	2.510765
	2.487087	2.515565
	2.485487	2.519085
	2.483567	2.522284
	2.482927	2.526444
	2.481647	2.528364
	2.480047	2.531884
	2.479088	2.535403
	2.478128	2.538923
	2.477808	2.541803
	2.477168	2.544363
	2.474288	2.549162
	2.472688	2.551722
	2.469488	2.556202
	2.465968	2.562601
	2.463409	2.564201
	2.457969	2.568361
	2.454129	2.572521
	2.449330	2.575401
	2.443250	2.577000
	2.440050	2.578920
	2.435571	2.580200
	2.432691	2.580520
	2.431091	2.580520
	2.430451	2.580200
	2.431091	2.577320
	2.432691	2.576680
	2.435251	2.677153
	2.439730	2.572201
	2.444210	2.566761
	2.447730	2.562921
	2.457009	2.559402
	2.460209	2.553962
	2.465649	2.547883
	2.472688	2.542443
	2.475248	2.536043
	2.480367	2.530604
	2.485807	2.527724
	2.491567	2.521005
	2.495726	2.517165
	2.497966	2.516205
	2.500206	2.514605
	2.504046	2.516205
	2.505966	2.516525
	2.506286	2.519405
	2.506606	2.521644
	2.507246	2.524844
	2.506926	2.529004
	2.508205	2.529324
	2.510125	2.528684
	2.508845	2.540203
	2.512685	2.525164
	2.513965	2.520685
	2.517805	2.515565
	2.521964	2.508525
	2.524204	2.501166
	2.529004	2.493487
	2.534124	2.487727
	2.540203	2.480367
	2.545003	2.474608
	2.549162	2.469488
	2.553322	2.465329
	2.558442	2.464049
	2.562921	2.462129
	2.565161	2.462769
	2.566441	2.462129
	2.566761	2.461489
	2.566441	2.465009
	2.565481	2.465649
	2.560682	2.470768
	2.556202	2.474608
	2.551402	2.479408
	2.544363	2.484847
	2.536363	2.490287
	2.532524	2.494126
	2.523884	2.498286
	2.515565	2.503406
	2.509165	2.505326
	2.502446	2.506606
	2.498286	2.506926
	2.493167	2.507885
	2.489647	2.508845
	2.487407	2.505326
	2.484527	2.503086
	2.484207	2.501486
	2.483887	2.499566
	2.482927	2.497326
	2.484207	2.495726
	2.484847	2.496366
	2.484527	2.489647
	2.486127	2.486767
	2.486767	2.483567
	2.487727	2.480047
	2.488687	2.477488
	2.489327	2.473968
	2.489327	2.524204
	2.491247	2.470448
	2.492847	2.469168
	2.493487	2.469808
	2.494126	2.470128
	2.496686	2.472368
	2.498926	2.473648
	2.500846	2.475888
	2.502446	2.477808
	2.503726	2.481327
	2.505646	2.483567
	2.507246	2.486127
	2.509485	2.486767
	2.510445	2.488047
	2.509805	2.489647
	2.509805	2.491567
	2.508845	2.493487
	2.505646	2.493487
	2.503086	2.494446
	2.504686	2.496686
	2.497646	2.496686
	2.495086	2.497326
	2.491247	2.499566
	2.491887	2.499246
	2.486127	2.499886
	2.486767	2.498926
	2.483247	2.498606
	2.485487	2.497646
	2.487407	2.498286
	2.489327	2.506606
	2.500846	2.496686
	2.500206	2.495726
	2.504366	2.495406
	2.508525	2.496366
	2.513645	2.496686
	2.518445	2.497966
	2.523244	2.497966
	2.527724	2.499566
	2.531564	2.504046
	2.534764	2.507565
	2.534764	2.524844
	2.537963	2.516205
	2.537963	2.521644
	2.537323	2.528364
	2.537003	2.535723
	2.534764	2.539563
	2.531884	2.546603
	2.528044	2.551722
	2.525164	2.557162
	2.521005	2.560042
	2.516205	2.562601
	2.511405	2.564521
	2.508525	2.564201
	2.506286	2.561962
	2.504046	2.559082
	2.502446	2.559082
	2.506286	2.559722
	2.502766	2.552362
	2.503726	2.583400
	2.506926	2.582760
	2.513005	2.556522
	2.514925	2.566121
	2.519725	2.689632
	2.522604	2.588200
	2.527724	2.559722
	2.530924	2.611238
	2.535083	2.587880
	2.538283	2.527404
	2.539883	2.517485
	2.540523	2.514285
	2.540523	2.565801
	2.539563	2.498606
	2.538923	2.506606
	2.538603	2.526444
	2.537643	2.526124
	2.538923	2.507565
	2.539883	2.496366
	2.540203	2.507246
	2.542123	2.525804
	2.544043	2.505646
	2.545643	2.500526
	2.547883	2.508205
	2.548523	2.495086
	2.571241	2.491887
	2.548203	2.484207
	2.547883	2.485167
	2.545643	2.479088
	2.545323	2.472048
	2.541483	2.470128
	2.538283	2.477808
	2.537963	2.473648
	2.535083	2.475888
	2.531884	2.481007
	2.530284	2.486767
	2.528364	2.493167
	2.525164	2.499566
	2.521324	2.506286
	2.518445	2.518765
	2.514285	2.518765
	2.509805	2.525484
	2.503406	2.531564
	2.499566	2.537003
	2.494766	2.538603
	2.489967	2.540523
	2.486127	2.542123
	2.482607	2.549802
	2.481647	2.548842
	2.480687	2.551722
	2.482287	2.552682
	2.483887	2.553962
	2.486447	2.555242
	2.489327	2.553002
	2.489327	2.552362
	2.492847	2.556202
	2.495086	2.548523
	2.496686	2.550442
	2.498286	2.572201
	2.497006	2.563241
	2.495406	2.579560
	2.525164	2.561962
	2.490927	2.534444
	2.486767	2.566121
	2.483887	2.568361
	2.488367	2.534124
	2.477168	2.554282
	2.473328	2.567401
	2.469488	2.544683
	2.466608	2.538923
	2.463729	2.537323
	2.461489	2.549482
	2.459569	2.537003
	2.457969	2.534444
	2.457969	2.533164
	2.458289	2.534124
	2.460529	2.531564
	2.462129	2.557802
	2.463089	2.517485
	2.464369	2.519405
	2.467888	2.513965
	2.469808	2.509165
	2.471088	2.507565
	2.474608	2.506926
	2.475888	2.501166
	2.476848	2.499246
	2.482927	2.496046
	2.480047	2.498286
	2.481327	2.501166
	2.481007	2.504046
	2.495086	2.506926
	2.482287	2.512365
	2.482287	2.521644
	2.481967	2.526124
	2.480687	2.534764
	2.481647	2.532844
	2.481647	2.534764
	2.481327	2.536683
	2.481327	2.535083
	2.482927	2.524524
	2.485167	2.518125
	2.487727	2.509165
	2.491567	2.501486
	2.501806	2.493806
	2.501806	2.484207
	2.508525	2.481327
	2.515885	2.478768
	2.560042	2.479728
	2.527404	2.476528
	2.532844	2.479728
	2.538283	2.481647
	2.540523	2.484207
	2.544043	2.485807
	2.543083	2.486447
	2.541163	2.486447
	2.541163	2.482927
	2.550762	2.481007
	2.535083	2.480367
	2.533804	2.480367
	2.531564	2.480367
	2.529004	2.481647
	2.526764	2.488367
	2.525804	2.496366
	2.524204	2.502766
	2.522284	2.512685
	2.523244	2.531884
	2.517805	2.530284
	2.514285	2.538603
	2.512365	2.543403
	2.508845	2.547563
	2.504366	2.547563
	2.500206	2.545963
	2.495086	2.544683
	2.492847	2.540523
	2.488687	2.541483
	2.483567	2.533164
	2.479088	2.531244
	2.476208	2.529324
	2.475248	2.526764
	2.474928	2.523884
	2.474288	2.521324
	2.474288	2.518125
	2.476208	2.514605
	2.480687	2.510765
	2.480047	2.503406
	2.483887	2.497006
	2.487087	2.491247
	2.491567	2.485487
	2.494766	2.476848
	2.499566	2.473328
	2.500206	2.467568
	2.502766	2.464689
	2.511085	2.463089
	2.506286	2.463409
	2.508205	2.463729
	2.508845	2.467568
	2.510445	2.469808
	2.512685	2.473968
	2.512685	2.478768
	2.515565	2.482287
	2.519405	2.486447
	2.523564	2.488367
	2.527404	2.491247
	2.535083	2.493487
	2.540203	2.495406
	2.546923	2.498286
	2.552362	2.501806
	2.555562	2.505646
	2.559402	2.510445
	2.561642	2.514605
	2.563241	2.520045
	2.584360	2.525484
	2.560682	2.527404
	2.558442	2.534124
	2.554922	2.537003
	2.552362	2.538603
	2.558762	2.540523
	2.546603	2.540523
	2.565801	2.539563
	2.622437	2.539243
	2.611878	2.537963
	2.608998	2.536683
	2.574121	2.535723
	2.570281	2.536043
	2.708191	2.535723
	2.639396	2.534124
	2.573161	2.534764
	2.573481	2.534764
	2.553002	2.534444
	2.603559	2.533164
	2.560682	2.530284
	2.550442	2.529964
	2.556202	2.527084
	2.545003	2.524204
	2.559402	2.521644
	2.565801	2.519085
	2.548842	2.516205
	2.541803	2.514605
	2.544363	2.515885
	2.553002	2.518765
	2.544683	2.522284
	2.537643	2.527084
	2.531884	2.531884
	2.533484	2.538923
	2.537323	2.544043
	2.531564	2.549482
	2.523884	2.551402
	2.520365	2.550442
	2.516205	2.553002
	2.520365	2.551402
	2.513005	2.547883
	2.506926	2.545963
	2.503726	2.542763
	2.497646	2.542123
	2.496046	2.541163
	2.490607	2.541163
	2.481967	2.542443
	2.476848	2.545963
	2.471088	2.549482
	2.469168	2.551722
	2.463729	2.553642
	2.459569	2.554922
	2.456049	2.556522
	2.453809	2.555242
	2.453809	2.554922
	2.450930	2.553642
	2.453169	2.552042
	2.449010	2.550762
	2.447410	2.548523
	2.448050	2.547563
	2.446770	2.548523
	2.449330	2.547563
	2.447410	2.549482
	2.449970	2.551722
	2.461169	2.552042
	2.458929	2.552362
	2.478448	2.553642
	2.472368	2.553642
	2.468208	2.553322
	2.486447	2.551402
	2.510125	2.549802
	2.489967	2.549162
	2.502126	2.545963
	2.478448	2.544363
	2.489327	2.542443
	2.501166	2.540843
	2.487087	2.539563
	2.489647	2.537003
	2.488687	2.535403
	2.498926	2.531884
	2.512685	2.529644
	2.520685	2.524204
	2.529964	2.518765
	2.540203	2.512685
	2.551722	2.505966
	2.558762	2.497966
	2.569001	2.489327
	2.577320	2.481327
	2.584360	2.472368
	2.586600	2.464369
	2.585320	2.457009
	2.588520	2.451570
	2.586920	2.447090
	2.582760	2.445490
	2.583720	2.442610
	2.573481	2.443890
	2.568681	2.443890
	2.565481	2.445170
	2.560042	2.447410
	2.554922	2.449330
	2.552362	2.449650
	2.543403	2.450610
	2.539883	2.452849
	2.532844	2.457329
	2.525484	2.461809
	2.521964	2.470768
	2.519085	2.479408
	2.517165	2.492847
	2.519405	2.506286
	2.519085	2.522924
	2.522924	2.538923
	2.525804	2.553962
	2.527724	2.569321
	2.531244	2.581800
	2.534764	2.592359
	2.535723	2.598119
	2.534764	2.603239
	2.533804	2.605478
	2.532204	2.606118
	2.527404	2.688352
	2.527404	2.605798
	2.522604	2.604198
	2.521005	2.604838
	2.518765	2.604518
	2.516525	2.602599
	2.515245	2.604198
	2.514925	2.598119
	2.513965	2.594919
	2.513005	2.588200
	2.512365	2.581160
	2.519405	2.572201
	2.513645	2.577960
	2.513645	2.555242
	2.513645	2.547883
	2.512045	2.540843
	2.511405	2.537323
	2.511405	2.532844
	2.511725	2.530604
	2.509805	2.530604
	2.510445	2.531564
	2.510125	2.532204
	2.510125	2.532844
	2.514925	2.533484
	2.511405	2.624357
	2.511085	2.530924
	2.511085	2.528364
	2.511405	2.524204
	2.511405	2.518445
	2.511725	2.512365
	2.509805	2.505006
	2.510125	2.497646
	2.510765	2.491567
	2.510765	2.488367
	2.510765	2.485487
	2.510765	2.486767
	2.510445	2.491247
	2.510125	2.501166
	2.511085	2.515885
	2.510125	2.536683
	2.510765	2.561962
	2.509805	2.592999
	2.508205	2.625957
	2.507885	2.658595
	2.507246	2.689952
	2.507246	2.718430
	2.504366	2.741788
	2.502446	2.759707
	2.501486	2.770906
	2.499246	2.776986
	2.497326	2.778266
	2.496046	2.778266
	2.493167	2.778266
	2.491247	2.776346
	2.489007	2.774746
	2.488687	2.773466
	2.487087	2.773146
	2.483887	2.768667
	2.483567	2.763867
	2.482607	2.753628
	2.482287	2.740829
	2.482287	2.722270
	2.482287	2.700831
	2.484847	2.678433
	2.487087	2.653475
	2.489327	2.630757
	2.493806	2.609638
	2.499566	2.594279
	2.505966	2.579240
	2.513645	2.576680
	2.518125	2.570601
	2.524524	2.570921
	2.531564	2.573161
	2.536683	2.573801
	2.540843	2.571881
	2.543403	2.568041
	2.547563	2.563561
	2.549482	2.550122
	2.549482	2.535723
	2.551722	2.520045
	2.550122	2.504366
	2.548203	2.491887
	2.549802	2.479728
	2.546923	2.472048
	2.545963	2.468208
	2.544043	2.467568
	2.543083	2.468208
	2.542443	2.471728
	2.539883	2.474928
	2.536363	2.475888
	2.539243	2.474608
	2.537323	2.471088
	2.536043	2.464369
	2.534444	2.456049
	2.532524	2.446770
	2.531564	2.437811
	2.530284	2.428851
	2.527084	2.421172
	2.526764	2.418292
	2.524524	2.416372
	2.522924	2.418612
	2.519725	2.421492
	2.518445	2.425331
	2.516525	2.430771
	2.525164	2.436851
	2.513325	2.441010
	2.511725	2.445810
	2.509805	2.448690
	2.507885	2.451250
	2.506606	2.451890
	2.504046	2.454129
	2.502126	2.456689
	2.498606	2.460209
	2.493487	2.465329
	2.491567	2.471088
	2.487087	2.478768
	2.481327	2.489007
	2.476848	2.498286
	2.473008	2.507246
	2.469808	2.520365
	2.465649	2.524204
	2.460209	2.530604
	2.457329	2.535723
	2.453169	2.537643
	2.452209	2.538923
	2.449650	2.538283
	2.448370	2.539563
	2.444530	2.540203
	2.443890	2.544043
	2.444210	2.549162
	2.444210	2.554922
	2.447730	2.563241
	2.451570	2.571241
	2.456689	2.580520
	2.462129	2.585960
	2.466608	2.589800
	2.475248	2.590439
	2.481647	2.587240
	2.488367	2.581480
	2.491567	2.573801
	2.497646	2.564521
	2.500846	2.553642
	2.503726	2.544363
	2.507565	2.537643
	2.508525	2.532844
	2.508845	2.530284
	2.510125	2.530284
	2.512365	2.531244
	2.514925	2.533484
	2.515885	2.536363
	2.518125	2.537323
	2.520685	2.536683
	2.521005	2.535083
	2.521644	2.534764
	2.523564	2.529004
	2.523884	2.524524
	2.524524	2.520365
	2.523244	2.518125
	2.521644	2.517485
	2.517485	2.520365
	2.513325	2.523884
	2.507246	2.532204
	2.500526	2.540843
	2.497006	2.550122
	2.489647	2.559402
	2.483247	2.568361
	2.476528	2.576360
	2.473328	2.582440
	2.468208	2.586920
	2.464369	2.589160
	2.463089	2.590759
	2.463729	2.591079
	2.466288	2.590119
	2.468208	2.589800
	2.473008	2.589480
	2.477488	2.590119
	2.481327	2.591719
	2.485487	2.591399
	2.489327	2.592999
	2.492527	2.595239
	2.496046	2.595559
	2.498606	2.597159
	2.500846	2.597159
	2.503086	2.596839
	2.506606	2.594599
	2.510125	2.593639
	2.513325	2.590119
	2.516205	2.586280
	2.519405	2.582440
	2.521964	2.577640
	2.523564	2.571241
	2.524204	2.566121
	2.522924	2.558762
	2.523884	2.551082
	2.523564	2.543723
	2.523244	2.535083
	2.522924	2.527084
	2.523884	2.520685
	2.526124	2.513645
	2.530284	2.508205
	2.534764	2.506606
	2.540203	2.505646
	2.545963	2.507565
	2.548203	2.509805
	2.553002	2.513005
	2.555562	2.514925
	2.557802	2.515565
	2.557482	2.516525
	2.557802	2.513645
	2.557482	2.508525
	2.557162	2.502126
	2.556842	2.496686
	2.556522	2.486447
	2.557482	2.479088
	2.556522	2.473968
	2.557162	2.471088
	2.557482	2.470448
	2.557482	2.471728
	2.558762	2.473328
	2.557802	2.476208
	2.556842	2.478768
	2.554922	2.479408
	2.553962	2.479088
	2.550762	2.475888
	2.549482	2.471728
	2.545323	2.465649
	2.541803	2.459249
	2.539563	2.452529
	2.535403	2.448690
	2.533484	2.448370
	2.532524	2.449970
	2.531564	2.455729
	2.530924	2.463729
	2.532204	2.475248
	2.533484	2.485487
	2.534444	2.497646
	2.536043	2.506926
	2.536683	2.514605
	2.537643	2.519405
	2.535723	2.521324
	2.531884	2.521005
	2.529324	2.517805
	2.525164	2.516525
	2.518125	2.515885
	2.511725	2.515245
	2.504366	2.518445
	2.497326	2.525484
	2.558762	2.535723
	2.483887	2.548523
	2.475568	2.562282
	2.466608	2.576680
	2.452209	2.589480
	2.449650	2.598759
	2.439090	2.606118
	2.429171	2.608998
	2.418612	2.608998
	2.424372	2.607078
	2.403893	2.603878
	2.395574	2.603559
	2.390454	2.603559
	2.387574	2.600999
	2.387254	2.610918
	2.387894	2.617957
	2.391414	2.625957
	2.398133	2.633636
	2.405493	2.639396
	2.409973	2.641636
	2.421492	2.641956
	2.431731	2.637476
	2.443570	2.628197
	2.456369	2.616998
	2.466288	2.603878
	2.478448	2.590439
	2.491247	2.577960
	2.502766	2.566121
	2.514285	2.557162
	2.520365	2.548523
	2.529324	2.543083
	2.537323	2.537323
	2.545003	2.531564
	2.552362	2.524844
	2.554922	2.516845
	2.560682	2.548842
	2.565161	2.507565
	2.569001	2.485487
	2.572521	2.473008
	2.574121	2.461489
	2.577000	2.452849
	2.578280	2.443890
	2.577960	2.437491
	2.575401	2.435251
	2.574761	2.455729
	2.573481	2.430451
	2.570281	2.427891
	2.569001	2.425331
	2.566441	2.421812
	2.564521	2.419252
	2.562282	2.416372
	2.560042	2.413492
	2.556842	2.412532
	2.552362	2.423732
	2.547883	2.418932
	2.540203	2.425331
	2.531564	2.437171
	2.521005	2.445810
	2.506606	2.460209
	2.497006	2.475568
	2.482927	2.490927
	2.469168	2.506606
	2.456689	2.519725
	2.445170	2.529324
	2.440050	2.538923
	2.431731	2.545643
	2.427571	2.554602
	2.423732	2.562282
	2.420532	2.573161
	2.421172	2.583720
	2.422772	2.595559
	2.495086	2.606758
	2.429171	2.616998
	2.433011	2.624037
	2.437491	2.629797
	2.445810	2.630437
	2.454129	2.626277
	2.465009	2.617318
	2.472048	2.605478
	2.483567	2.591079
	2.495406	2.577320
	2.504366	2.564201
	2.513965	2.553962
	2.518445	2.550122
	2.525484	2.548203
	2.532844	2.551082
	2.537963	2.557482
	2.540843	2.564841
	2.542763	2.584360
	2.546603	2.577960
	2.549162	2.580200
	2.549482	2.579880
	2.552042	2.574121
	2.553002	2.568041
	2.553322	2.556842
	2.553002	2.545963
	2.551082	2.535403
	2.550442	2.535083
	2.548203	2.525804
	2.545963	2.524204
	2.545643	2.526444
	2.543083	2.530604
	2.541163	2.535083
	2.541803	2.537963
	2.541163	2.541163
	2.541163	2.540203
	2.539563	2.540203
	2.539243	2.531884
	2.538603	2.525164
	2.537643	2.519725
	2.534764	2.511405
	2.530924	2.507246
	2.527724	2.503406
	2.524524	2.502766
	2.519725	2.502766
	2.513325	2.507565
	2.507565	2.510765
	2.501806	2.515245
	2.497006	2.518765
	2.490927	2.523244
	2.486127	2.525484
	2.480367	2.528044
	2.474608	2.529964
	2.471728	2.529644
	2.469488	2.530284
	2.465009	2.530604
	2.464689	2.533164
	2.465009	2.535723
	2.468848	2.537323
	2.473008	2.538603
	2.481647	2.540203
	2.491247	2.539563
	2.502766	2.539243
	2.511725	2.536043
	2.523884	2.530604
	2.536043	2.524844
	2.546923	2.518765
	2.553322	2.511085
	2.560682	2.504046
	2.565161	2.497966
	2.569001	2.493487
	2.570921	2.489967
	2.571561	2.489007
	2.572841	2.487727
	2.572201	2.491247
	2.571241	2.494446
	2.569321	2.499246
	2.567721	2.505966
	2.563561	2.514285
	2.560362	2.522924
	2.553002	2.533484
	2.545643	2.543403
	2.539883	2.553642
	2.531884	2.563881
	2.523244	2.574761
	2.515245	2.583080
	2.509165	2.591399
	2.505326	2.600999
	2.501486	2.608678
	2.500206	2.618597
	2.527084	2.627557
	2.501806	2.637156
	2.501806	2.646435
	2.503086	2.655395
	2.503086	2.662754
	2.503726	2.668514
	2.503726	2.671714
	2.503406	2.671394
	2.501806	2.665954
	2.504046	2.657955
	2.500846	2.646435
	2.501806	2.633636
	2.502446	2.618597
	2.502766	2.606118
	2.504046	2.594279
	2.505326	2.584040
	2.508845	2.575721
	2.511085	2.569321
	2.515565	2.565801
	2.520365	2.561002
	2.529004	2.557482
	2.539883	2.551402
	2.549162	2.542443
	2.567401	2.530604
	2.587880	2.516845
	2.610278	2.499886
	2.627557	2.483567
	2.651875	2.469808
	2.676833	2.453169
	2.698912	2.438450
	2.718430	2.426291
	2.727710	2.418292
	2.738909	2.415092
	2.742428	2.417012
	2.741149	2.424691
	2.733149	2.436531
	2.724190	2.452209
	2.708191	2.467568
	2.689632	2.486767
	2.668514	2.503726
	2.647395	2.522284
	2.633956	2.536683
	2.614758	2.551402
	2.598439	2.568041
	2.584360	2.577320
	2.574761	2.591079
	2.566761	2.600679
	2.558442	2.647395
	2.552682	2.701151
	2.544043	2.686752
	2.542123	2.648035
	2.537643	2.654115
	2.533804	2.712991
	2.529964	2.639076
	2.524204	2.625957
	2.520685	2.625637
	2.519085	2.621477
	2.514925	2.606438
	2.509805	2.599079
	2.505646	2.574121
	2.500206	2.567081
	2.496366	2.576041
	2.490607	2.559722
	2.482287	2.557802
	2.474288	2.568041
	2.465649	2.575721
	2.459249	2.582440
	2.451890	2.589800
	2.443890	2.588520
	2.437491	2.593319
	2.433011	2.600679
	2.432051	2.591079
	2.428211	2.586920
	2.429811	2.584360
	2.430131	2.580520
	2.431091	2.574441
	2.433331	2.568681
	2.434611	2.561002
	2.439090	2.558442
	2.441010	2.562282
	2.444530	2.555242
	2.444850	2.553642
	2.447730	2.555882
	2.450930	2.553642
	2.453809	2.551402
	2.459249	2.550762
	2.461169	2.545003
	2.464689	2.543083
	2.470768	2.541483
	2.474928	2.538283
	2.480367	2.535723
	2.483887	2.535723
	2.488687	2.534444
	2.492847	2.536043
	2.498606	2.535403
	2.502126	2.535723
	2.510445	2.535723
	2.517165	2.539883
	2.525484	2.535403
	2.534124	2.536363
	2.538923	2.536363
	2.545003	2.534124
	2.549482	2.534124
	2.551402	2.532524
	2.551082	2.531244
	2.547883	2.530284
	2.542763	2.531884
	2.536043	2.531244
	2.526444	2.532844
	2.515885	2.533164
	2.509165	2.536683
	2.500206	2.537643
	2.495406	2.539243
	2.490927	2.538283
	2.491887	2.538603
	2.495086	2.536363
	2.500206	2.532204
	2.508205	2.528044
	2.518445	2.521324
	2.526764	2.514925
	2.532844	2.510445
	2.538603	2.505646
	2.542443	2.503406
	2.542763	2.504046
	2.539563	2.509805
	2.535723	2.516205
	2.530284	2.527724
	2.524844	2.543083
	2.520045	2.559722
	2.520045	2.577320
	2.519085	2.594919
	2.522284	2.611238
	2.526444	2.624997
	2.532844	2.637156
	2.537963	2.643876
	2.541163	2.648675
	2.543403	2.651555
	2.543723	2.650915
	2.542443	2.650275
	2.539243	2.648035
	2.535403	2.643876
	2.529004	2.639396
	2.537003	2.638436
	2.520685	2.631716
	2.518765	2.629157
	2.520045	2.625637
	2.522604	2.621477
	2.529004	2.619877
	2.534444	2.616358
	2.541803	2.616038
	2.544363	2.613158
	2.551082	2.616358
	2.555562	2.605798
	2.558762	2.599399
	2.560042	2.590759
	2.562921	2.579560
	2.565161	2.569641
	2.568681	2.555242
	2.573161	2.538283
	2.577000	2.523244
	2.585640	2.531884
	2.594279	2.491887
	2.605158	2.478448
	2.616358	2.464689
	2.624677	2.455729
	2.632036	2.446770
	2.637476	2.442290
	2.641636	2.438131
	2.642916	2.434931
	2.640036	2.433971
	2.635236	2.432691
	2.628517	2.430451
	2.622117	2.428851
	2.612198	2.425651
	2.607718	2.422772
	2.598759	2.418932
	2.588520	2.417332
	2.716510	2.415732
	2.571561	2.417012
	2.568361	2.418292
	2.559082	2.423092
	2.550442	2.429491
	2.541803	2.437491
	2.534124	2.443890
	2.528684	2.451570
	2.517485	2.458289
	2.518445	2.463089
	2.505966	2.465649
	2.501486	2.467248
	2.498286	2.467568
	2.495726	2.467248
	2.493806	2.465968
	2.492527	2.465649
	2.491567	2.466608
	2.490607	2.469168
	2.495406	2.473008
	2.487727	2.478128
	2.485487	2.483567
	2.480687	2.490927
	2.478128	2.496686
	2.471728	2.503086
	2.467248	2.507565
	2.461809	2.512045
	2.455729	2.513965
	2.460209	2.514285
	2.448690	2.515565
	2.452849	2.549802
	2.439730	2.517485
	2.436531	2.519725
	2.435571	2.524844
	2.433011	2.529644
	2.430771	2.536683
	2.429811	2.544363
	2.429491	2.549802
	2.428851	2.559722
	2.425971	2.569321
	2.428851	2.576041
	2.429811	2.583720
	2.431731	2.587880
	2.432371	2.590439
	2.434291	2.591719
	2.438770	2.591719
	2.439730	2.591399
	2.449010	2.590759
	2.500206	2.592359
	2.470128	2.592359
	2.501806	2.593319
	2.509485	2.596199
	2.512045	2.599079
	2.507565	2.602919
	2.473008	2.607718
	2.480367	2.614758
	2.478768	2.620837
	2.513965	2.628517
	2.547563	2.637156
	2.499566	2.645475
	2.504046	2.653475
	2.508525	2.661154
	2.506926	2.664354
	2.500846	2.667874
	2.501486	2.666914
	2.501166	2.664354
	2.512365	2.659874
	2.522284	2.654755
	2.509165	2.649315
	2.512045	2.642276
	2.515885	2.636196
	2.520365	2.630117
	2.520045	2.624677
	2.550442	2.618277
	2.531884	2.611558
	2.544363	2.604198
	2.551402	2.593959
	2.548842	2.584040
	2.550762	2.572841
	2.556522	2.560042
	2.557482	2.547883
	2.555562	2.538283
	2.598439	2.529644
	2.553002	2.522604
	2.553002	2.518765
	2.549802	2.516845
	2.540203	2.516525
	2.537963	2.514285
	2.531244	2.518125
	2.524524	2.518765
	2.516525	2.517165
	2.511725	2.515885
	2.507885	2.509805
	2.513005	2.503726
	2.502126	2.496046
	2.497006	2.488047
	2.495086	2.479728
	2.493806	2.470448
	2.492847	2.463089
	2.493487	2.457649
	2.495726	2.452849
	2.499886	2.449970
	2.502126	2.447730
	2.505646	2.448370
	2.507885	2.449010
	2.511725	2.450290
	2.515245	2.452209
	2.517805	2.453489
	2.521644	2.453169
	2.523244	2.454129
	2.522924	2.479088
	2.524524	2.455089
	2.522604	2.457009
	2.521644	2.460209
	2.518445	2.465649
	2.516525	2.472048
	2.515565	2.479728
	2.513005	2.489967
	2.509485	2.500526
	2.508205	2.511725
	2.507885	2.521005
	2.506926	2.530284
	2.505326	2.537003
	2.504046	2.543083
	2.501806	2.547883
	2.497966	2.552042
	2.496366	2.554922
	2.490927	2.555882
	2.485167	2.559402
	2.481007	2.562601
	2.477488	2.565481
	2.474928	2.568361
	2.472688	2.570281
	2.473328	2.571241
	2.475568	2.571241
	2.480367	2.568041
	2.483247	2.565481
	2.491247	2.558122
	2.498606	2.550442
	2.505326	2.541483
	2.511725	2.533164
	2.514605	2.524844
	2.517165	2.517165
	2.520045	2.511405
	2.523564	2.507885
	2.522924	2.515565
	2.524204	2.506606
	2.525804	2.510125
	2.529644	2.513645
	2.535083	2.518125
	2.544043	2.524524
	2.548523	2.529644
	2.557802	2.532524
	2.566441	2.536043
	2.573481	2.536363
	2.578600	2.535723
	2.581160	2.531564
	2.581480	2.528044
	2.578280	2.523564
	2.575081	2.517805
	2.569001	2.510765
	2.565801	2.506606
	2.569961	2.502126
	2.557802	2.496046
	2.554922	2.492527
	2.556202	2.489007
	2.557162	2.487087
	2.557162	2.484847
	2.560042	2.484207
	2.562921	2.483567
	2.563561	2.483567
	2.565481	2.482607
	2.564201	2.481967
	2.563561	2.481007
	2.561002	2.481647
	2.559402	2.482287
	2.553002	2.483247
	2.548523	2.485487
	2.543083	2.488687
	2.537003	2.491887
	2.538283	2.495086
	2.526444	2.502446
	2.519405	2.502766
	2.513645	2.504366
	2.505006	2.505966
	2.501166	2.507246
	2.494446	2.504366
	2.489327	2.501806
	2.483887	2.499566
	2.481647	2.495406
	2.473968	2.495086
	2.471408	2.488687
	2.468208	2.487727
	2.467248	2.485487
	2.467568	2.481007
	2.468528	2.486447
	2.469168	2.488047
	2.467568	2.489327
	2.470128	2.493487
	2.467248	2.497966
	2.466288	2.497966
	2.462449	2.499886
	2.459569	2.501166
	2.456049	2.501166
	2.453489	2.500526
	2.450610	2.500526
	2.448370	2.497966
	2.449970	2.497006
	2.447730	2.497326
	2.450610	2.493487
	2.453169	2.493487
	2.458289	2.492527
	2.463089	2.491247
	2.470448	2.489327
	2.477488	2.486767
	2.481967	2.483567
	2.488367	2.481647
	2.490287	2.478768
	2.493487	2.477808
	2.495086	2.476528
	2.496686	2.477168
	2.498926	2.480047
	2.499246	2.485487
	2.501166	2.490287
	2.503406	2.496686
	2.513965	2.500526
	2.507885	2.505326
	2.511085	2.507565
	2.516525	2.509165
	2.519085	2.509165
	2.524204	2.506926
	2.528044	2.506286
	2.532204	2.504046
	2.536363	2.502446
	2.539883	2.501806
	2.549482	2.503406
	2.542123	2.503726
	2.544683	2.506926
	2.546923	2.509165
	2.548523	2.512045
	2.552042	2.514925
	2.554922	2.515885
	2.558122	2.513965
	2.563881	2.513325
	2.569641	2.509485
	2.572521	2.507246
	2.576680	2.505326
	2.581800	2.503726
	2.586920	2.505966
	2.588520	2.509485
	2.591399	2.514925
	2.593959	2.521964
	2.595239	2.529324
	2.596839	2.537003
	2.597479	2.543403
	2.596839	2.548523
	2.596519	2.552042
	2.595879	2.551402
	2.595239	2.547883
	2.595239	2.544043
	2.594279	2.540843
	2.594919	2.536043
	2.594279	2.530284
	2.594599	2.528364
	2.595559	2.525804
	2.597479	2.526764
	2.598759	2.529324
	2.600999	2.532204
	2.601639	2.536043
	2.602279	2.538603
	2.601959	2.542443
	2.599399	2.543723
	2.596199	2.543083
	2.590759	2.539563
	2.588840	2.534764
	2.581160	2.528684
	2.575081	2.522604
	2.569961	2.516205
	2.564201	2.511725
	2.561642	2.511725
	2.556202	2.508525
	2.552362	2.510765
	2.547883	2.514605
	2.542763	2.520045
	2.539563	2.525804
	2.537323	2.531244
	2.532844	2.534444
	2.530604	2.538923
	2.530604	2.540843
	2.525484	2.543083
	2.522604	2.544683
	2.521964	2.546283
	2.521644	2.545963
	2.521964	2.551082
	2.525804	2.553642
	2.530604	2.559082
	2.536363	2.564201
	2.543083	2.570281
	2.548203	2.576041
	2.556522	2.579240
	2.566121	2.580200
	2.575401	2.576680
	2.585000	2.569641
	2.589800	2.558442
	2.597799	2.547883
	2.604198	2.534764
	2.605798	2.520365
	2.608358	2.507885
	2.608678	2.496366
	2.607718	2.488687
	2.604198	2.482927
	2.599399	2.482607
	2.592679	2.485167
	2.587560	2.489967
	2.579240	2.496686
	2.568681	2.501166
	2.560362	2.506286
	2.550762	2.511085
	2.544363	2.513645
	2.537963	2.518445
	2.532204	2.523884
	2.527404	2.531884
	2.522924	2.545003
	2.521324	2.560362
	2.518765	2.579880
	2.519085	2.602599
	2.518445	2.625957
	2.519405	2.649315
	2.519085	2.672354
	2.519085	2.691232
	2.520365	2.704031
	2.520365	2.712031
	2.519725	2.713631
	2.517805	2.710431
	2.517485	2.701791
	2.514605	2.690272
	2.510445	2.678113
	2.505966	2.665954
	2.504046	2.655075
	2.500846	2.649635
	2.499566	2.645795
	2.498606	2.685153
	2.498606	2.650595
	2.499886	2.654755
	2.501166	2.660514
	2.503086	2.662754
	2.504046	2.662754
	2.505966	2.663394
	2.505966	2.659554
	2.506286	2.653475
	2.504686	2.654435
	2.500526	2.643236
	2.497006	2.641316
	2.491247	2.641956
	2.487407	2.644516
	2.482287	2.650275
	2.476848	2.656355
	2.475888	2.664034
	2.473968	2.668514
	2.474608	2.673313
	2.475568	2.669154
	2.478128	2.662434
	2.481967	2.652515
	2.487087	2.637796
	2.492527	2.621797
	2.500206	2.604198
	2.506926	2.588200
	2.511725	2.574121
	2.517485	2.566121
	2.525164	2.556202
	2.532844	2.553002
	2.537963	2.551722
	2.542443	2.552362
	2.547883	2.553322
	2.554922	2.553962
	2.558442	2.552042
	2.560362	2.550122
	2.561002	2.545963
	2.561642	2.539883
	2.558442	2.535083
	2.552682	2.531564
	2.549162	2.528364
	2.543723	2.526444
	2.538603	2.528684
	2.535403	2.529964
	2.534444	2.532204
	2.537003	2.535083
	2.536363	2.535723
	2.540843	2.535083
	2.547883	2.530284
	2.553322	2.524844
	2.561002	2.516205
	2.564841	2.505326
	2.568681	2.494446
	2.570921	2.483567
	2.570601	2.472368
	2.567721	2.464689
	2.565481	2.457649
	2.562282	2.453169
	2.556842	2.453169
	2.552042	2.453489
	2.546283	2.456689
	2.541483	2.460849
	2.536683	2.480687
	2.531884	2.469168
	2.526764	2.473328
	2.523564	2.475248
	2.519405	2.477808
	2.513005	2.478448
	2.508525	2.480367
	2.503086	2.479408
	2.501166	2.478768
	2.498286	2.477808
	2.496366	2.474928
	2.497646	2.471088
	2.499566	2.469488
	2.500846	2.466928
	2.503726	2.463729
	2.507885	2.462449
	2.513005	2.459569
	2.516845	2.459889
	2.518445	2.459249
	2.520365	2.458929
	2.520685	2.459889
	2.519085	2.460529
	2.516205	2.461489
	2.513645	2.462769
	2.508205	2.465649
	2.503086	2.465968
	2.497326	2.468528
	2.492527	2.469488
	2.489327	2.469808
	2.486767	2.469168
	2.487087	2.469488
	2.487407	2.468848
	2.493167	2.467568
	2.497646	2.465329
	2.505646	2.462769
	2.514925	2.461809
	2.532524	2.461169
	2.534444	2.460849
	2.538923	2.461489
	2.545643	2.462769
	2.549802	2.465649
	2.551722	2.469808
	2.552042	2.473328
	2.552362	2.478768
	2.552042	2.483567
	2.549802	2.490287
	2.550762	2.496686
	2.549162	2.502766
	2.549802	2.510125
	2.552682	2.516845
	2.553642	2.525164
	2.555562	2.533164
	2.557482	2.540843
	2.557802	2.547883
	2.560042	2.555882
	2.557162	2.562921
	2.553962	2.568361
	2.552362	2.573481
	2.547883	2.578920
	2.542123	2.584360
	2.535723	2.588840
	2.528684	2.592679
	2.523564	2.607398
	2.517805	2.607078
	2.507246	2.616998
	2.499566	2.626597
	2.491887	2.640356
	2.488367	2.657315
	2.480687	2.673953
	2.476208	2.691872
	2.471088	2.709151
	2.465009	2.735069
	2.464049	2.737629
	2.461169	2.746908
	2.461169	2.751708
	2.460849	2.752668
	2.461809	2.749468
	2.463409	2.740829
	2.470128	2.729949
	2.476208	2.715870
	2.485487	2.704351
	2.496046	2.684193
	2.502126	2.667554
	2.511725	2.650595
	2.523884	2.635556
	2.532844	2.619237
	2.546603	2.607078
	2.553642	2.595239
	2.561322	2.586600
	2.569321	2.580520
	2.577000	2.568681
	2.583400	2.560362
	2.585960	2.553322
	2.588520	2.544043
	2.589800	2.533484
	2.589160	2.526124
	2.586280	2.515245
	2.585320	2.505006
	2.579560	2.496686
	2.574121	2.487407
	2.568681	2.480367
	2.565161	2.479088
	2.560042	2.479408
	2.556522	2.485807
	2.554922	2.495406
	2.552042	2.505646
	2.550762	2.519405
	2.551082	2.532844
	2.553642	2.543403
	2.546923	2.550762
	2.543723	2.554922
	2.541483	2.554922
	2.537963	2.553322
	2.532204	2.548203
	2.529004	2.541803
	2.524524	2.537323
	2.524524	2.534444
	2.524524	2.532524
	2.527724	2.533804
	2.533804	2.535723
	2.541163	2.541163
	2.547883	2.545643
	2.556522	2.547883
	2.567081	2.546923
	2.575721	2.543083
	2.583400	2.535083
	2.586600	2.523564
	2.591079	2.508525
	2.593319	2.491887
	2.593639	2.474928
	2.592999	2.459889
	2.593959	2.450930
	2.591399	2.439730
	2.591079	2.433331
	2.590759	2.427251
	2.588200	2.428851
	2.588200	2.428531
	2.586280	2.431091
	2.584680	2.435571
	2.580520	2.441330
	2.576360	2.447090
	2.571241	2.452529
	2.562601	2.460209
	2.553322	2.463409
	2.541483	2.470448
	2.527404	2.480367
	2.518765	2.488687
	2.505006	2.504686
	2.493487	2.517485
	2.482607	2.561962
	2.473008	2.594279
	2.468848	2.615718
	2.464049	2.571881
	2.461489	2.611558
	2.461809	2.727390
	2.463089	2.687072
	2.463729	2.832022
	2.467568	2.723550
	2.470128	2.748188
	2.473008	2.675233
	2.473328	2.599719
	2.473968	2.620197
	2.473008	2.604518
	2.472368	2.616678
	2.471088	2.620197
	2.472688	2.663394
	2.467888	2.639076
	2.468208	2.645475
	2.471728	2.645795
	2.473008	2.632036
	2.474928	2.639076
	2.479408	2.639076
	2.481327	2.647395
	2.485167	2.643876
	2.486767	2.656675
	2.486767	2.638436
	2.487727	2.632036
	2.488367	2.616678
	2.487407	2.598759
	2.489647	2.593319
	2.492847	2.585000
	2.497966	2.585320
	2.506286	2.579560
	2.515565	2.586600
	2.527084	2.581160
	2.536043	2.585000
	2.546923	2.579560
	2.558122	2.576680
	2.567081	2.575081
	2.573161	2.574761
	2.576680	2.574441
	2.578920	2.566761
	2.578920	2.569001
	2.577000	2.558442
	2.573481	2.557802
	2.572841	2.550122
	2.569641	2.543083
	2.570921	2.538923
	2.571561	2.537323
	2.573481	2.537643
	2.576041	2.537323
	2.579880	2.540523
	2.584680	2.540523
	2.587880	2.545003
	2.590119	2.541803
	2.589480	2.538923
	2.587880	2.536043
	2.583400	2.537963
	2.578280	2.569321
	2.570281	2.557482
	2.566121	2.556522
	2.558442	2.553962
	2.551722	2.554282
	2.545323	2.580840
	2.544363	2.503726
	2.539883	2.502126
	2.537963	2.496686
	2.535403	2.515565
	2.534124	2.501806
	2.530284	2.509485
	2.531564	2.509805
	2.527404	2.519085
	2.524524	2.524524
	2.526764	2.511725
	2.519725	2.512365
	2.517165	2.521005
	2.513645	2.518125
	2.513325	2.509165
	2.510445	2.510125
	2.508205	2.513005
	2.508205	2.516525
	2.507885	2.521324
	2.507246	2.517805
	2.506926	2.524524
	2.506286	2.531244
	2.507565	2.540843
	2.507885	2.546283
	2.509165	2.553322
	2.511085	2.560362
	2.512685	2.566441
	2.515885	2.571241
	2.517805	2.569641
	2.519405	2.567401
	2.520365	2.567401
	2.522284	2.565481
	2.524844	2.561322
	2.526124	2.559082
	2.527724	2.554922
	2.529644	2.553002
	2.531884	2.552682
	2.535403	2.546283
	2.540203	2.541803
	2.547243	2.536683
	2.555242	2.529644
	2.562282	2.520045
	2.571881	2.509165
	2.582120	2.501806
	2.593319	2.489327
	2.600999	2.476528
	2.603878	2.463409
	2.608678	2.452849
	2.606758	2.444530
	2.604198	2.438770
	2.599079	2.434611
	2.594279	2.432371
	2.587240	2.433331
	2.579880	2.436531
	2.575401	2.441650
	2.571561	2.447090
	2.569001	2.455409
	2.566761	2.463729
	2.565161	2.473968
	2.561002	2.483887
	2.555882	2.494766
	2.549802	2.504046
	2.541163	2.513325
	2.582120	2.522924
	2.518125	2.530284
	2.510765	2.539563
	2.499886	2.546603
	2.490927	2.552682
	2.485487	2.560042
	2.481647	2.564521
	2.483567	2.570601
	2.485807	2.575081
	2.495726	2.579240
	2.497646	2.583080
	2.532844	2.586280
	2.506926	2.588840
	2.513005	2.592679
	2.517485	2.596199
	2.521644	2.600359
	2.525804	2.605478
	2.530284	2.609638
	2.545963	2.614438
	2.546283	2.617638
	2.559402	2.621157
	2.569961	2.622117
	2.578280	2.622117
	2.594919	2.618597
	2.608678	2.613798
	2.621477	2.606118
	2.632676	2.597799
	2.640356	2.586280
	2.645475	2.573481
	2.653475	2.559722
	2.657635	2.546923
	2.662754	2.534124
	2.665954	2.522284
	2.669474	2.514285
	2.674913	2.509485
	2.677793	2.506606
	2.680033	2.508525
	2.679713	2.514605
	2.680033	2.523244
	2.675233	2.535403
	2.667234	2.549802
	2.656355	2.565161
	2.648995	2.581160
	2.632996	2.594919
	2.617318	2.607398
	2.600039	2.618917
	2.582440	2.624037
	2.571241	2.673633
	2.552682	2.629797
	2.538283	2.629157
	2.528684	2.624997
	2.543403	2.620197
	2.533164	2.615078
	2.580520	2.609318
	2.498286	2.602919
	2.529964	2.598759
	2.534444	2.594919
	2.539243	2.590119
	2.603239	2.585000
	2.522284	2.581800
	2.620837	2.576680
	2.577640	2.571241
	2.551082	2.565481
	2.451890	2.558122
	2.459889	2.548842
	2.488047	2.537963
	2.492207	2.527084
	2.503726	2.514925
	2.513005	2.504686
	2.543723	2.495406
	2.535083	2.487727
	2.544683	2.481327
	2.537643	2.479088
	2.555562	2.480367
	2.579880	2.481007
	2.597479	2.482607
	2.612198	2.487087
	2.622757	2.491887
	2.646435	2.496366
	2.639716	2.501486
	2.644516	2.507246
	2.630117	2.512685
	2.627557	2.518445
	2.624037	2.526444
	2.617957	2.533804
	2.612838	2.543403
	2.604198	2.553002
	2.609318	2.561322
	2.598759	2.572201
	2.594599	2.581160
	2.593639	2.588840
	2.592999	2.596199
	2.597159	2.601639
	2.599079	2.606438
	2.600359	2.607718
	2.597479	2.606118
	2.600679	2.606758
	2.594919	2.605798
	2.590119	2.603559
	2.586600	2.600039
	2.583080	2.595239
	2.583720	2.590119
	2.580840	2.584680
	2.579560	2.579880
	2.576360	2.576041
	2.577640	2.573161
	2.577320	2.572521
	2.580840	2.572201
	2.577640	2.575081
	2.579560	2.579560
	2.596839	2.582440
	2.600039	2.587880
	2.612838	2.593319
	2.592679	2.596199
	2.591719	2.599399
	2.589160	2.597159
	2.576680	2.594919
	2.572841	2.587880
	2.549162	2.581160
	2.551082	2.571881
	2.543083	2.562921
	2.534124	2.553322
	2.523884	2.545643
	2.520045	2.539243
	2.515245	2.535403
	2.545643	2.531564
	2.506286	2.530924
	2.500526	2.531884
	2.501806	2.529964
	2.498926	2.531884
	2.496686	2.530924
	2.492847	2.529004
	2.492847	2.524844
	2.493806	2.520045
	2.493167	2.513645
	2.493487	2.509485
	2.495406	2.505006
	2.499566	2.498606
	2.504046	2.496046
	2.509485	2.495086
	2.510765	2.494126
	2.516525	2.496046
	2.523244	2.496686
	2.525804	2.497646
	2.530284	2.503726
	2.530924	2.496046
	2.535403	2.492847
	2.537643	2.488367
	2.538603	2.481007
	2.538603	2.475568
	2.540523	2.468528
	2.541483	2.461169
	2.542763	2.456049
	2.544683	2.452209
	2.549482	2.450290
	2.545643	2.451250
	2.546603	2.452209
	2.546283	2.455729
	2.545003	2.460209
	2.542763	2.465329
	2.540523	2.469808
	2.568681	2.475248
	2.536043	2.479088
	2.533804	2.481967
	2.527724	2.484207
	2.523884	2.485807
	2.519085	2.487407
	2.513645	2.490607
	2.508205	2.494126
	2.501486	2.497646
	2.498286	2.503726
	2.492207	2.509165
	2.489967	2.517485
	2.487087	2.523884
	2.486767	2.530604
	2.486127	2.536363
	2.489967	2.538923
	2.493806	2.543723
	2.499886	2.545323
	2.507885	2.545003
	2.511405	2.543403
	2.517485	2.540843
	2.521005	2.539883
	2.524204	2.538603
	2.529004	2.540203
	2.527404	2.542763
	2.526444	2.547563
	2.525484	2.555562
	2.526124	2.565161
	2.525804	2.573481
	2.527724	2.583400
	2.529644	2.591719
	2.532204	2.600679
	2.536043	2.605798
	2.535403	2.608358
	2.539883	2.608998
	2.542443	2.606758
	2.546283	2.603239
	2.542123	2.597799
	2.540523	2.592679
	2.538283	2.590119
	2.533804	2.589160
	2.528364	2.591079
	2.522924	2.594599
	2.519725	2.600999
	2.515245	2.608358
	2.512045	2.618277
	2.507885	2.630437
	2.505326	2.641636
	2.503726	2.652835
	2.499566	2.663714
	2.497006	2.671714
	2.493806	2.676513
	2.491567	2.679393
	2.489647	2.680033
	2.491247	2.678433
	2.490607	2.688032
	2.492527	2.671714
	2.496046	2.667234
	2.500526	2.662434
	2.508525	2.656995
	2.514285	2.653475
	2.522604	2.649635
	2.530284	2.644836
	2.533484	2.639716
	2.537323	2.634596
	2.541163	2.626597
	2.540523	2.618277
	2.539243	2.608358
	2.537323	2.596519
	2.532524	2.583720
	2.528364	2.571561
	2.521964	2.560682
	2.516525	2.550762
	2.512685	2.551402
	2.508525	2.533484
	2.505326	2.529004
	2.504046	2.524204
	2.503406	2.516525
	2.501806	2.518445
	2.501166	2.516205
	2.502446	2.513325
	2.502126	2.510445
	2.502766	2.506926
	2.504686	2.503086
	2.505646	2.499246
	2.507246	2.497326
	2.509805	2.494126
	2.511085	2.493487
	2.513965	2.493487
	2.518765	2.494126
	2.524844	2.497966
	2.529324	2.501486
	2.532204	2.505006
	2.535723	2.507246
	2.543403	2.513005
	2.547243	2.514605
	2.552362	2.518445
	2.554922	2.520685
	2.558762	2.521644
	2.567081	2.523244
	2.567401	2.524524
	2.572841	2.526124
	2.575721	2.529324
	2.581160	2.530604
	2.585000	2.532204
	2.591079	2.529964
	2.592999	2.529964
	2.594599	2.526444
	2.596839	2.520685
	2.631397	2.514925
	2.597479	2.508845
	2.597159	2.500526
	2.595879	2.492527
	2.593959	2.485807
	2.591079	2.477488
	2.588840	2.472688
	2.584040	2.467248
	2.582440	2.463089
	2.578280	2.459889
	2.574441	2.457009
	2.569321	2.454129
	2.566441	2.451570
	2.562921	2.447730
	2.560682	2.445170
	2.556202	2.442930
	2.552682	2.440690
	2.548523	2.442610
	2.546283	2.444530
	2.541803	2.447730
	2.541803	2.453489
	2.540523	2.459889
	2.539243	2.467888
	2.541483	2.475568
	2.544683	2.483247
	2.546283	2.488047
	2.549162	2.491887
	2.550122	2.495086
	2.554282	2.494126
	2.556842	2.493806
	2.559082	2.491887
	2.561002	2.488687
	2.562601	2.485167
	2.561962	2.483887
	2.561002	2.480687
	2.558442	2.585960
	2.556522	2.478448
	2.552682	2.478128
	2.546603	2.479408
	2.540523	2.478128
	2.532844	2.479728
	2.525804	2.478768
	2.521324	2.479408
	2.514285	2.477808
	2.507885	2.481967
	2.503406	2.477488
	2.501166	2.479088
	2.498926	2.479408
	2.496686	2.482927
	2.494126	2.486127
	2.490927	2.491247
	2.487727	2.497646
	2.486127	2.504686
	2.482607	2.511725
	2.477488	2.517165
	2.471408	2.521644
	2.465009	2.524524
	2.463729	2.526444
	2.457329	2.526444
	2.454769	2.524204
	2.453169	2.526764
	2.452529	2.529324
	2.452209	2.535403
	2.451570	2.544043
	2.454449	2.557482
	2.457009	2.575401
	2.458289	2.597479
	2.459889	2.621477
	2.461169	2.646115
	2.463089	2.669474
	2.465329	2.691872
	2.465009	2.709471
	2.466288	2.718750
	2.466608	2.724190
	2.467568	2.723230
	2.468528	2.717150
	2.467888	2.710111
	2.468528	2.701791
	2.472368	2.691552
	2.474608	2.684833
	2.476528	2.683233
	2.478768	2.680673
	2.481647	2.682593
	2.482927	2.688992
	2.481647	2.693472
	2.484847	2.700831
	2.485487	2.704351
	2.484207	2.708191
	2.482927	2.707871
	2.480687	2.707231
	2.478448	2.701151
	2.475248	2.696032
	2.470768	2.688992
	2.466608	2.681313
	2.463089	2.681953
	2.461169	2.680353
	2.459569	2.680673
	2.458609	2.680033
	2.459889	2.682913
	2.463729	2.685473
	2.466928	2.684833
	2.471408	2.682913
	2.477488	2.679073
	2.487407	2.670754
	2.497646	2.660194
	2.507885	2.648035
	2.516205	2.633316
	2.589160	2.617318
	2.539883	2.601639
	2.550442	2.585960
	2.565161	2.575401
	2.573481	2.563241
	2.586280	2.555882
	2.597479	2.551082
	2.607718	2.545643
	2.615718	2.543083
	2.619557	2.539563
	2.622117	2.535723
	2.624997	2.529004
	2.623077	2.522284
	2.621157	2.513645
	2.617318	2.504046
	2.611558	2.492527
	2.606438	2.480687
	2.600039	2.469808
	2.596199	2.458609
	2.592359	2.449010
	2.588520	2.439090
	2.584360	2.432051
	2.582760	2.426291
	2.580840	2.419252
	2.579880	2.416692
	2.578280	2.414452
	2.577000	2.425971
	2.574761	2.416052
	2.572521	2.416372
	2.571881	2.418292
	2.569321	2.420212
	2.564841	2.421812
	2.563561	2.423412
	2.560682	2.424691
	2.559082	2.425651
	2.558122	2.430131
	2.554602	2.430771
	2.553322	2.434291
	2.553002	2.437171
	2.553002	2.441650
	2.552042	2.445170
	2.552362	2.448690
	2.552682	2.452209
	2.552682	2.456369
	2.648675	2.459569
	2.550762	2.461169
	2.550442	2.463409
	2.550762	2.463409
	2.549802	2.464689
	2.547883	2.465649
	2.545003	2.466608
	2.541803	2.467888
	2.539243	2.468848
	2.537963	2.471088
	2.533804	2.472048
	2.528044	2.475888
	2.524204	2.478448
	2.514925	2.481327
	2.514925	2.485807
	2.509805	2.488687
	2.505326	2.492207
	2.500846	2.499246
	2.497966	2.499886
	2.495086	2.503086
	2.491567	2.506606
	2.488687	2.511085
	2.485167	2.512365
	2.481007	2.517485
	2.478128	2.520045
	2.473648	2.522604
	2.469488	2.529004
	2.464689	2.526764
	2.461169	2.527724
	2.457329	2.530604
	2.455409	2.533164
	2.455089	2.534124
	2.454129	2.538923
	2.456689	2.541803
	2.456689	2.547243
	2.457649	2.554602
	2.459249	2.559402
	2.460529	2.562601
	2.460209	2.569961
	2.461489	2.576041
	2.460849	2.580200
	2.461169	2.584040
	2.462129	2.587240
	2.464689	2.588840
	2.465968	2.591719
	2.469808	2.592999
	2.473648	2.594279
	2.479728	2.595559
	2.484207	2.599719
	2.489327	2.603239
	2.494126	2.604198
	2.498606	2.606758
	2.500526	2.609638
	2.500846	2.610598
	2.502126	2.609638
	2.501166	2.607718
	2.501806	2.605798
	2.497966	2.601959
	2.497646	2.598759
	2.495726	2.595559
	2.494446	2.592999
	2.493167	2.590119
	2.493167	2.588520
	2.493167	2.586280
	2.493806	2.583400
	2.494446	2.580520
	2.497646	2.577320
	2.499566	2.571881
	2.502766	2.564521
	2.505966	2.557162
	2.509485	2.549482
	2.513965	2.542443
	2.517485	2.535403
	2.519725	2.527724
	2.522924	2.522284
	2.526444	2.516845
	2.527404	2.513645
	2.528364	2.510445
	2.529324	2.508845
	2.527724	2.508525
	2.529004	2.508525
	2.528044	2.509805
	2.528364	2.513005
	2.527724	2.517485
	2.526444	2.521964
	2.525484	2.530924
	2.523244	2.540203
	2.521324	2.550122
	2.519085	2.560042
	2.518125	2.569641
	2.513965	2.575721
	2.509165	2.580840
	2.506286	2.583400
	2.503086	2.585320
	2.501486	2.583400
	2.499246	2.583080
	2.501166	2.581480
	2.505006	2.581160
	2.509485	2.583080
	2.515565	2.583720
	2.525484	2.586600
	2.534124	2.591079
	2.543723	2.591399
	2.549482	2.597159
	2.556202	2.599399
	2.561002	2.599399
	2.561962	2.601639
	2.560682	2.590759
	2.558122	2.583080
	2.552362	2.571881
	2.545323	2.558762
	2.541163	2.545003
	2.536043	2.529964
	2.533804	2.515885
	2.533804	2.503086
	2.537643	2.490287
	2.544683	2.480047
	2.551722	2.472368
	2.563241	2.464369
	2.576680	2.457009
	2.592999	2.448370
	2.608678	2.439730
	2.618597	2.427891
	2.632036	2.415732
	2.642916	2.402613
	2.651555	2.389174
	2.656675	2.373495
	2.658915	2.364536
	2.659234	2.355577
	2.659234	2.348217
	2.655395	2.345657
	2.653155	2.345017
	2.650275	2.348537
	2.645475	2.354617
	2.640036	2.389494
	2.634596	2.371895
	2.626597	2.380215
	2.623077	2.386934
	2.615078	2.390774
	2.606118	2.393974
	2.596839	2.393654
	2.586920	2.393334
	2.582120	2.392374
	2.572841	2.393974
	2.566441	2.398453
	2.560362	2.404853
	2.555882	2.414772
	2.553002	2.427251
	2.552042	2.441970
	2.549482	2.456369
	2.547243	2.486767
	2.545643	2.482287
	2.544363	2.492847
	2.541803	2.498286
	2.537963	2.500846
	2.536043	2.498926
	2.533804	2.496046
	2.533164	2.493487
	2.530924	2.492847
	2.529964	2.494446
	2.531884	2.497006
	2.534124	2.504366
	2.536043	2.515245
	2.538923	2.527724
	2.543083	2.542763
	2.547883	2.555562
	2.550122	2.566441
	2.553322	2.572201
	2.555242	2.578600
	2.558442	2.579560
	2.561322	2.577320
	2.564841	2.574441
	2.564841	2.570601
	2.570281	2.566441
	2.570601	2.562601
	2.573801	2.559722
	2.575081	2.557482
	2.578920	2.555242
	2.579240	2.553002
	2.579240	2.549482
	2.578920	2.547243
	2.577320	2.542443
	2.572201	2.536363
	2.565161	2.534764
	2.556522	2.528364
	2.546283	2.523884
	2.539883	2.520685
	2.529324	2.518765
	2.520365	2.516845
	2.512045	2.515245
	2.504046	2.516845
	2.500526	2.519405
	2.495406	2.517485
	2.491247	2.523564
	2.489967	2.516845
	2.540523	2.524524
	2.512365	2.504366
	2.493806	2.560362
	2.496366	2.551082
	2.497966	2.568681
	2.500846	2.537643
	2.501166	2.545323
	2.503086	2.489647
	2.504366	2.532844
	2.507885	2.498926
	2.504366	2.502446
	2.504686	2.553322
	2.503086	2.521644
	2.500206	2.527084
	2.497646	2.528684
	2.493167	2.529964
	2.489007	2.514925
	2.484527	2.591719
	2.481007	2.510125
	2.474928	2.510765
	2.471088	2.528044
	2.468848	2.523244
	2.466608	2.532204
	2.465329	2.540203
	2.467888	2.551082
	2.469808	2.555562
	2.473008	2.565161
	2.476848	2.562921
	2.480367	2.561322
	2.483567	2.564201
	2.485807	2.553962
	2.487407	2.544683
	2.489647	2.533804
	2.490607	2.526444
	2.491887	2.519405
	2.492847	2.521964
	2.493487	2.520365
	2.496366	2.528044
	2.498286	2.540843
	2.501166	2.550442
	2.502766	2.563241
	2.503406	2.572201
	2.504046	2.578280
	2.502446	2.580840
	2.500526	2.587880
	2.497966	2.576360
	2.493487	2.570281
	2.489327	2.564841
	2.483887	2.555562
	2.478128	2.548203
	2.475888	2.543403
	2.473968	2.540203
	2.472048	2.537643
	2.471728	2.541483
	2.472368	2.540843
	2.473968	2.542763
	2.476848	2.543723
	2.479088	2.540523
	2.481007	2.537963
	2.480047	2.532204
	2.480367	2.526444
	2.478768	2.519725
	2.627237	2.518765
	2.473008	2.505966
	2.470128	2.505326
	2.468848	2.499246
	2.463409	2.498606
	2.459889	2.501486
	2.460209	2.503726
	2.459889	2.506286
	2.461809	2.510445
	2.465649	2.513645
	2.469808	2.514605
	2.476528	2.514925
	2.484847	2.513325
	2.489967	2.510125
	2.499886	2.506926
	2.508205	2.505326
	2.517805	2.503726
	2.528684	2.504046
	2.535403	2.515565
	2.545963	2.512365
	2.557482	2.518125
	2.567081	2.523884
	2.578600	2.529324
	2.585960	2.532524
	2.593959	2.534124
	2.600679	2.533804
	2.607718	2.530924
	2.611238	2.528044
	2.612198	2.521644
	2.612518	2.516525
	2.609318	2.513645
	2.604518	2.510765
	2.598759	2.510445
	2.595239	2.512685
	2.588520	2.514605
	2.580520	2.518765
	2.574441	2.522604
	2.569641	2.527084
	2.565481	2.528044
	2.561642	2.529324
	2.556522	2.528364
	2.552362	2.528364
	2.546923	2.526124
	2.545323	2.523244
	2.541163	2.521964
	2.534764	2.524524
	2.528684	2.529004
	2.522284	2.533804
	2.518445	2.542443
	2.512045	2.550762
	2.506606	2.558122
	2.502126	2.565481
	2.500206	2.568681
	2.506926	2.570601
	2.496366	2.569641
	2.494446	2.569001
	2.495086	2.557482
	2.496046	2.551082
	2.497326	2.542123
	2.496686	2.532524
	2.498926	2.525484
	2.501166	2.520045
	2.505006	2.517485
	2.505006	2.513645
	2.508525	2.512365
	2.512365	2.512685
	2.515565	2.512365
	2.519085	2.511085
	2.522284	2.511725
	2.523884	2.508525
	2.525164	2.505006
	2.528044	2.503086
	2.527404	2.498606
	2.528684	2.493806
	2.527404	2.491247
	2.527084	2.488047
	2.524844	2.486767
	2.527724	2.487727
	2.529324	2.487727
	2.531884	2.489967
	2.535083	2.493487
	2.537963	2.493806
	2.541803	2.495726
	2.544683	2.495406
	2.548203	2.494126
	2.551082	2.493167
	2.552362	2.490287
	2.552362	2.488687
	2.552362	2.487087
	2.549482	2.487087
	2.546283	2.490607
	2.541483	2.496046
	2.538923	2.503726
	2.532204	2.513325
	2.525804	2.523244
	2.518765	2.534764
	2.512045	2.546603
	2.508205	2.556522
	2.500846	2.564841
	2.494126	2.570601
	2.486767	2.573801
	2.481327	2.575721
	2.477488	2.574761
	2.473328	2.573481
	2.470128	2.572201
	2.465968	2.572201
	2.464689	2.572201
	2.463409	2.573481
	2.463089	2.574121
	2.463409	2.574441
	2.463089	2.575401
	2.464369	2.576360
	2.464049	2.574761
	2.464049	2.573161
	2.471408	2.571561
	2.465329	2.567721
	2.465649	2.573161
	2.461809	2.561322
	2.523244	2.560042
	2.551082	2.560042
	2.536683	2.560042
	2.473648	2.561322
	2.479088	2.561962
	2.467248	2.561322
	2.465968	2.561322
	2.464049	2.559402
	2.478128	2.554922
	2.489647	2.551082
	2.495086	2.543403
	2.500846	2.537003
	2.491247	2.529324
	2.497006	2.526124
	2.502766	2.520685
	2.509165	2.517165
	2.554282	2.517165
	2.530924	2.517805
	2.535083	2.520685
	2.541483	2.522924
	2.543403	2.526444
	2.539883	2.529324
	2.556842	2.532524
	2.535723	2.533484
	2.537963	2.537003
	2.537963	2.538283
	2.524204	2.539243
	2.518445	2.538923
	2.512045	2.540523
	2.505966	2.539563
	2.501486	2.537963
	2.494446	2.534764
	2.491567	2.529964
	2.493487	2.524524
	2.492847	2.518125
	2.488687	2.510765
	2.489007	2.504046
	2.489967	2.495086
	2.489967	2.488367
	2.490927	2.482287
	2.494766	2.479408
	2.497966	2.477168
	2.497966	2.478128
	2.498926	2.480367
	2.498926	2.483567
	2.500206	2.484847
	2.500526	2.487407
	2.502126	2.489327
	2.503406	2.488367
	2.502766	2.487087
	2.503086	2.485167
	2.501806	2.482927
	2.501166	2.480687
	2.499246	2.478448
	2.497966	2.481007
	2.503086	2.481967
	2.495726	2.487087
	2.495086	2.494126
	2.493806	2.501166
	2.493806	2.510125
	2.494126	2.518765
	2.492207	2.526124
	2.495086	2.530284
	2.497326	2.533164
	2.500846	2.532844
	2.502766	2.531244
	2.507246	2.529964
	2.508525	2.527724
	2.510765	2.522284
	2.512685	2.521324
	2.514605	2.518765
	2.517805	2.517805
	2.519085	2.516525
	2.521644	2.516205
	2.525804	2.514925
	2.529004	2.513325
	2.533484	2.509485
	2.537963	2.505006
	2.545323	2.496686
	2.551722	2.490927
	2.560362	2.483247
	2.567401	2.473328
	2.570921	2.466928
	2.578920	2.462769
	2.578920	2.460529
	2.581480	2.463089
	2.579880	2.468528
	2.576680	2.478128
	2.574441	2.489967
	2.567401	2.504366
	2.559722	2.518445
	2.552682	2.532204
	2.544043	2.545003
	2.535083	2.553962
	2.524524	2.561962
	2.515565	2.566761
	2.509165	2.568681
	2.499886	2.568361
	2.491247	2.568041
	2.485167	2.567081
	2.481007	2.566761
	2.479408	2.566441
	2.477168	2.565801
	2.478768	2.566121
	2.481967	2.565161
	2.486767	2.565161
	2.490607	2.562282
	2.497006	2.558442
	2.503726	2.551722
	2.517165	2.552042
	2.515885	2.555882
	2.519405	2.542123
	2.523564	2.537323
	2.526444	2.531884
	2.526764	2.529964
	2.526764	2.526444
	2.525164	2.525484
	2.525484	2.524204
	2.524204	2.523564
	2.524844	2.523884
	2.524524	2.524204
	2.525804	2.522924
	2.529324	2.523564
	2.529004	2.523244
	2.533484	2.522284
	2.533804	2.521964
	2.534124	2.520365
	2.534124	2.519405
	2.533804	2.519725
	2.530604	2.540523
	2.525164	2.519085
	2.521644	2.519725
	2.514605	2.519085
	2.507246	2.519085
	2.500846	2.520045
	2.492847	2.520685
	2.487407	2.520365
	2.481647	2.520685
	2.475888	2.521005
	2.472048	2.521644
	2.468848	2.523564
	2.467888	2.524204
	2.466608	2.524204
	2.465009	2.525804
	2.465649	2.525804
	2.465329	2.527404
	2.466608	2.529644
	2.467568	2.531884
	2.465329	2.534444
	2.463409	2.538923
	2.464369	2.545003
	2.461809	2.553962
	2.460209	2.561962
	2.458289	2.569641
	2.459889	2.579240
	2.454129	2.586280
	2.453489	2.591719
	2.452529	2.594919
	2.452529	2.593959
	2.454449	2.589480
	2.453169	2.583080
	2.455409	2.574441
	2.457009	2.562921
	2.460209	2.551402
	2.463409	2.539883
	2.465329	2.528684
	2.480047	2.520045
	2.470128	2.514285
	2.473008	2.510445
	2.474288	2.507885
	2.474608	2.507885
	2.475248	2.507565
	2.477808	2.510125
	2.476528	2.512045
	2.476528	2.512685
	2.476848	2.512685
	2.475568	2.512045
	2.472368	2.511085
	2.469168	2.512045
	2.467248	2.512685
	2.464689	2.516205
	2.460849	2.520365
	2.457329	2.528044
	2.453169	2.535403
	2.450930	2.544043
	2.450930	2.553642
	2.448690	2.562282
	2.449330	2.570281
	2.453489	2.576680
	2.447410	2.580520
	2.448370	2.584040
	2.448370	2.583400
	2.448050	2.581160
	2.446450	2.577000
	2.447090	2.571881
	2.446450	2.565801
	2.446130	2.561002
	2.447090	2.557162
	2.449650	2.553962
	2.454449	2.551722
	2.456689	2.550762
	2.461169	2.549162
	2.466608	2.547883
	2.473648	2.544363
	2.476528	2.542123
	2.480687	2.538283
	2.485487	2.532524
	2.488687	2.525484
	2.490287	2.518765
	2.491567	2.513005
	2.494126	2.508525
	2.495726	2.498926
	2.497966	2.497966
	2.500526	2.492847
	2.502126	2.491567
	2.507246	2.489327
	2.511405	2.489647
	2.515885	2.491567
	2.520045	2.492847
	2.522604	2.496046
	2.527084	2.499566
	2.529644	2.503406
	2.532524	2.507565
	2.535403	2.512685
	2.537963	2.516205
	2.539883	2.519725
	2.541483	2.523244
	2.543083	2.523884
	2.545963	2.526764
	2.547243	2.525484
	2.552682	2.525804
	2.554282	2.525164
	2.558122	2.522924
	2.558442	2.521644
	2.559402	2.518765
	2.559082	2.516205
	2.557802	2.514285
	2.554282	2.511405
	2.550442	2.509805
	2.547563	2.507885
	2.543083	2.504686
	2.537963	2.503086
	2.532844	2.502446
	2.529324	2.501806
	2.525164	2.503086
	2.524204	2.505646
	2.521005	2.508525
	2.519405	2.513325
	2.518125	2.517165
	2.518125	2.521644
	2.514925	2.522604
	2.514605	2.525164
	2.510125	2.526124
	2.504686	2.526124
	2.504686	2.526124
	2.500846	2.524204
	2.497646	2.518765
	2.493806	2.520365
	2.492847	2.519405
	2.492207	2.520045
	2.492207	2.523244
	2.491887	2.528684
	2.493806	2.535083
	2.493487	2.545003
	2.491887	2.555562
	2.491567	2.565481
	2.487407	2.575721
	2.482927	2.585000
	2.478448	2.591719
	2.472688	2.596519
	2.468208	2.601319
	2.461809	2.602279
	2.459569	2.605478
	2.458289	2.605798
	2.458609	2.608038
	2.461169	2.610918
	2.464369	2.614758
	2.468528	2.619557
	2.471088	2.624997
	2.476208	2.628197
	2.481007	2.630117
	2.483887	2.630757
	2.485487	2.627557
	2.488367	2.621477
	2.489647	2.614438
	2.490927	2.603559
	2.494766	2.673313
	2.498286	2.577320
	2.502126	2.567081
	2.509165	2.554282
	2.515565	2.543083
	2.523564	2.534444
	2.531884	2.526764
	2.538603	2.520045
	2.545643	2.516205
	2.552042	2.512045
	2.558122	2.508845
	2.565481	2.503726
	2.567721	2.501486
	2.575081	2.498606
	2.580520	2.494766
	2.585960	2.492527
	2.590119	2.489647
	2.592679	2.487727
	2.596839	2.486127
	2.599079	2.484847
	2.597479	2.487087
	2.595559	2.489007
	2.591399	2.490927
	2.584680	2.493167
	2.575081	2.496686
	2.564201	2.499566
	2.554282	2.502766
	2.546603	2.505006
	2.535403	2.509805
	2.527404	2.511725
	2.520685	2.513325
	2.514605	2.514925
	2.512365	2.514925
	2.508525	2.514285
	2.506606	2.514605
	2.505006	2.514925
	2.504046	2.512685
	2.504046	2.511085
	2.502126	2.510445
	2.501486	2.509485
	2.500206	2.508205
	2.499566	2.506286
	2.500526	2.503726
	2.499886	2.500206
	2.501806	2.497966
	2.504366	2.493487
	2.505966	2.490927
	2.508525	2.485487
	2.511085	2.482607
	2.513005	2.478768
	2.514925	2.478448
	2.515565	2.476848
	2.515565	2.476848
	2.515245	2.479728
	2.513645	2.481967
	2.512045	2.487087
	2.510445	2.493806
	2.506286	2.498286
	2.505006	2.504366
	2.503726	2.560682
	2.501806	2.514285
	2.500526	2.518125
	2.500206	2.520045
	2.499566	2.523564
	2.498926	2.526124
	2.497006	2.529004
	2.497646	2.531884
	2.497646	2.537003
	2.496366	2.540843
	2.496366	2.545963
	2.495086	2.551402
	2.493806	2.557162
	2.493487	2.562921
	2.491887	2.567401
	2.489647	2.572521
	2.489967	2.575401
	2.488367	2.576360
	2.488687	2.575401
	2.488687	2.572841
	2.490287	2.569961
	2.491247	2.565481
	2.494126	2.558762
	2.495726	2.551402
	2.497326	2.548523
	2.499566	2.543083
	2.502126	2.538923
	2.503726	2.534124
	2.507565	2.528364
	2.509805	2.522604
	2.511405	2.519725
	2.513645	2.512685
	2.514605	2.508525
	2.518445	2.503406
	2.521324	2.510125
	2.522924	2.496686
	2.528684	2.495726
	2.529964	2.494446
	2.533804	2.493806
	2.536683	2.496686
	2.538923	2.499566
	2.541483	2.500846
	2.541803	2.503086
	2.546923	2.503406
	2.543083	2.504686
	2.542763	2.504046
	2.541483	2.503086
	2.540203	2.501806
	2.539563	2.498606
	2.537963	2.495406
	2.535403	2.492527
	2.535403	2.490287
	2.533804	2.489647
	2.531244	2.489327
	2.529004	2.490287
	2.525164	2.492847
	2.520365	2.494126
	2.517805	2.494766
	2.512685	2.494766
	2.508525	2.493167
	2.504366	2.490287
	2.498926	2.486767
	2.496366	2.480687
	2.495086	2.473648
	2.491887	2.467888
	2.489327	2.462129
	2.490607	2.458289
	2.487727	2.458289
	2.486447	2.459569
	2.484847	2.463409
	2.483247	2.467248
	2.480687	2.473968
	2.478768	2.478448
	2.476848	2.482927
	2.475248	2.483567
	2.474608	2.483567
	2.473968	2.482287
	2.475888	2.478128
	2.476848	2.472368
	2.478128	2.469488
	2.481327	2.466288
	2.482607	2.466288
	2.484847	2.468208
	2.484527	2.473648
	2.487407	2.479088
	2.486767	2.486127
	2.487087	2.493806
	2.486447	2.502766
	2.484847	2.511085
	2.481967	2.518445
	2.481967	2.521644
	2.479408	2.523244
	2.478128	2.521964
	2.477168	2.520365
	2.475568	2.520365
	2.489647	2.518765
	2.473648	2.520045
	2.475248	2.522284
	2.475248	2.527084
	2.477488	2.534124
	2.479728	2.540843
	2.481647	2.547243
	2.485167	2.554282
	2.489327	2.555882
	2.493487	2.556202
	2.500206	2.552362
	2.503406	2.547563
	2.506286	2.540523
	2.510765	2.532204
	2.514285	2.525484
	2.517485	2.521644
	2.519405	2.518445
	2.520365	2.518445
	2.521324	2.522284
	2.522604	2.527724
	2.523244	2.534444
	2.522604	2.541803
	2.524204	2.559082
	2.523564	2.554602
	2.523564	2.556202
	2.523884	2.557802
	2.524524	2.556202
	2.526124	2.551082
	2.527404	2.546923
	2.530604	2.542763
	2.532844	2.539563
	2.534124	2.535083
	2.537003	2.533164
	2.538603	2.538603
	2.539243	2.533164
	2.538603	2.532204
	2.537003	2.530924
	2.536043	2.529644
	2.532844	2.525164
	2.529324	2.518445
	2.526764	2.512365
	2.524844	2.505646
	2.521964	2.497006
	2.519405	2.490607
	2.517165	2.616998
	2.516845	2.480687
	2.515565	2.478128
	2.513005	2.478128
	2.510125	2.480687
	2.508525	2.483567
	2.505646	2.486127
	2.502766	2.491567
	2.500206	2.496046
	2.497646	2.499566
	2.495726	2.503726
	2.495086	2.508205
	2.494446	2.511725
	2.495086	2.516845
	2.497326	2.516525
	2.499886	2.519085
	2.500846	2.520045
	2.503406	2.533804
	2.504686	2.576680
	2.505966	2.528684
	2.505646	2.582440
	2.505006	2.648355
	2.505006	2.586600
	2.503726	2.601639
	2.502766	2.586280
	2.502126	2.650915
	2.501486	2.536683
	2.501806	2.553002
	2.502126	2.543083
	2.501166	2.524204
	2.500206	2.532524
	2.500526	2.520045
	2.499566	2.550122
	2.496686	2.509805
	2.494766	2.510125
	2.491247	2.534764
	2.489327	2.524524
	2.487407	2.506606
	2.484847	2.501806
	2.483247	2.512685
	2.482927	2.505646
	2.482287	2.501806
	2.481327	2.511085
	2.484207	2.506286
	2.486447	2.506286
	2.488367	2.509485
	2.491247	2.531244
	2.494446	2.515245
	2.496046	2.513005
	2.499886	2.522284
	2.500206	2.516525
	2.501806	2.517805
	2.502126	2.521005
	2.502446	2.527084
	2.502766	2.525164
	2.502126	2.528364
	2.500526	2.532844
	2.498926	2.536363
	2.495406	2.539243
	2.492847	2.541483
	2.490607	2.548842
	2.489007	2.545643
	2.487407	2.546603
	2.486127	2.554282
	2.486767	2.553642
	2.487727	2.556202
	2.489007	2.562282
	2.490607	2.567401
	2.492847	2.574121
	2.494766	2.578920
	2.496366	2.587240
	2.584040	2.591719
	2.503086	2.593639
	2.503406	2.594919
	2.505326	2.595239
	2.506286	2.590439
	2.509485	2.593319
	2.512365	2.623717
	2.515565	2.587880
	2.521005	2.617638
	2.523564	2.656355
	2.539243	2.577320
	2.535723	2.554602
	2.539563	2.555882
	2.543403	2.563241
	2.545323	2.544363
	2.545643	2.569641
	2.545643	2.553002
	2.546283	2.537003
	2.543723	2.530284
	2.540523	2.537643
	2.548203	2.530604
	2.533164	2.521964
	2.529644	2.524524
	2.527084	2.511725
	2.525484	2.507885
	2.524844	2.502446
	2.523884	2.497966
	2.526444	2.493167
	2.525484	2.491567
	2.526444	2.490607
	2.525804	2.488047
	2.524844	2.487407
	2.523244	2.490607
	2.531884	2.483247
	2.519725	2.476848
	2.517485	2.473008
	2.513645	2.470768
	2.509485	2.460209
	2.506606	2.457649
	2.502446	2.451890
	2.499566	2.446450
	2.495406	2.445170
	2.491247	2.445810
	2.489327	2.446770
	2.482287	2.450290
	2.477488	2.455729
	2.491247	2.460849
	2.466928	2.468528
	2.465009	2.473968
	2.461169	2.480687
	2.460209	2.482927
	2.459249	2.487727
	2.459249	2.491567
	2.457969	2.493487
	2.459569	2.497646
	2.460849	2.501166
	2.462129	2.500846
	2.463729	2.503406
	2.462449	2.508205
	2.464689	2.511085
	2.461489	2.512365
	2.461809	2.518125
	2.522924	2.521644
	2.463409	2.522924
	2.464369	2.526444
	2.465968	2.529324
	2.469808	2.531244
	2.472048	2.535403
	2.474928	2.538283
	2.477168	2.541163
	2.478448	2.541803
	2.480367	2.544043
	2.481647	2.544043
	2.481007	2.544363
	2.482287	2.542123
	2.483567	2.540523
	2.484527	2.538283
	2.486447	2.535083
	2.489967	2.534444
	2.492847	2.532524
	2.498606	2.529964
	2.505966	2.529324
	2.513965	2.526444
	2.519405	2.525484
	2.529004	2.527404
	2.534764	2.522604
	2.542443	2.518445
	2.552682	2.512685
	2.552042	2.508525
	2.555562	2.500846
	2.564521	2.497326
	2.561642	2.489327
	2.562601	2.482607
	2.613798	2.478128
	2.563241	2.473648
	2.561962	2.472048
	2.562282	2.471408
	2.558762	2.474288
	2.556842	2.477168
	2.554922	2.481647
	2.552362	2.486767
	2.546283	2.492527
	2.540523	2.497966
	2.536683	2.502446
	2.529004	2.507565
	2.521005	2.510125
	2.513005	2.510765
	2.505326	2.513325
	2.499886	2.514605
	2.491887	2.516205
	2.485807	2.518125
	2.480367	2.519725
	2.477168	2.523564
	2.476528	2.528364
	2.474928	2.527724
	2.480367	2.528044
	2.481007	2.530284
	2.482607	2.530604
	2.486127	2.530284
	2.491247	2.533164
	2.494126	2.527084
	2.497006	2.527404
	2.498606	2.531244
	2.501806	2.524844
	2.501486	2.523564
	2.522284	2.524844
	2.566121	2.525484
	2.517165	2.526444
	2.553962	2.527404
	2.536683	2.529004
	2.563881	2.529324
	2.551082	2.529964
	2.568041	2.531244
	2.561002	2.533484
	2.514285	2.535083
	2.514925	2.536683
	2.512685	2.537963
	2.507885	2.539243
	2.517805	2.540203
	2.518445	2.539883
	2.505646	2.540203
	2.502126	2.538283
	2.503726	2.535723
	2.499566	2.531884
	2.504046	2.526444
	2.501486	2.520365
	2.496046	2.514605
	2.496046	2.508845
	2.496046	2.503086
	2.497326	2.499566
	2.501806	2.496046
	2.500206	2.493806
	2.499886	2.493487
	2.498606	2.492847
	2.498926	2.492527
	2.496686	2.493167
	2.496366	2.494766
	2.492527	2.492527
	2.491887	2.490927
	2.487407	2.489647
	2.483887	2.488047
	2.482607	2.486767
	2.481007	2.489967
	2.476528	2.483247
	2.477808	2.479728
	2.474288	2.479408
	2.474608	2.478768
	2.473968	2.480367
	2.473328	2.482927
	2.471728	2.485167
	2.473328	2.489647
	2.472048	2.491567
	2.473008	2.496046
	2.474928	2.498286
	2.475888	2.501806
	2.476848	2.505326
	2.478128	2.507246
	2.478768	2.510445
	2.481647	2.514285
	2.481967	2.517805
	2.481967	2.521324
	2.488367	2.525484
	2.485167	2.530284
	2.486447	2.536363
	2.524204	2.540203
	2.499566	2.546923
	2.520685	2.550122
	2.514925	2.553642
	2.505646	2.556842
	2.552682	2.557482
	2.502766	2.558442
	2.514605	2.558442
	2.515885	2.557482
	2.512045	2.554922
	2.511085	2.552682
	2.526444	2.549482
	2.515885	2.548842
	2.521005	2.549482
	2.527724	2.550762
	2.523244	2.553962
	2.521964	2.558122
	2.528044	2.562921
	2.523244	2.567721
	2.527084	2.572521
	2.526444	2.576041
	2.522284	2.577960
	2.531244	2.577960
	2.524524	2.575081
	2.522924	2.570601
	2.527724	2.568041
	2.528684	2.561642
	2.529644	2.557162
	2.533804	2.551722
	2.536043	2.546923
	2.539563	2.543403
	2.539243	2.540843
	2.541163	2.537643
	2.540843	2.535723
	2.540523	2.532844
	2.536683	2.531884
	2.537323	2.529004
	2.530604	2.524844
	2.527084	2.521005
	2.529644	2.516525
	2.517805	2.512045
	2.515885	2.507246
	2.510765	2.503726
	2.505646	2.498926
	2.502126	2.496046
	2.497646	2.494766
	2.495726	2.494126
	2.494766	2.493167
	2.489967	2.494446
	2.489967	2.494126
	2.490287	2.493806
	2.490607	2.492847
	2.490927	2.489327
	2.493806	2.487407
	2.496686	2.482927
	2.500846	2.477808
	2.503726	2.470768
	2.507246	2.466288
	2.532524	2.459569
	2.512365	2.457329
	2.513325	2.454449
	2.513645	2.452209
	2.512685	2.454129
	2.513005	2.454769
	2.511725	2.459249
	2.510765	2.466288
	2.514925	2.471408
	2.509485	2.478128
	2.508845	2.486447
	2.507246	2.491887
	2.507565	2.500846
	2.505646	2.506926
	2.504366	2.513965
	2.501806	2.519725
	2.499886	2.527084
	2.495726	2.532204
	2.494126	2.535723
	2.490927	2.541163
	2.487087	2.544363
	2.482927	2.546923
	2.481327	2.549482
	2.481327	2.550122
	2.484847	2.550442
	2.482287	2.551722
	2.484527	2.549802
	2.486447	2.549482
	2.488047	2.547883
	2.491887	2.544363
	2.493487	2.542443
	2.496366	2.537963
	2.497006	2.533484
	2.498606	2.528684
	2.498606	2.525164
	2.497966	2.521324
	2.498926	2.518445
	2.499566	2.513645
	2.497006	2.511405
	2.498286	2.510445
	2.500206	2.509165
	2.502766	2.507885
	2.504686	2.507246
	2.505966	2.507565
	2.508205	2.507246
	2.509485	2.504686
	2.510125	2.505006
	2.511405	2.503086
	2.509805	2.502766
	2.506606	2.500206
	2.509485	2.499886
	2.500206	2.499246
	2.496686	2.499246
	2.494126	2.499886
	2.492847	2.501166
	2.490607	2.503406
	2.490927	2.507885
	2.488687	2.511405
	2.490287	2.516205
	2.490287	2.521964
	2.490607	2.526764
	2.492527	2.530604
	2.492207	2.533164
	2.492527	2.534764
	2.492847	2.537643
	2.493487	2.535083
	2.494766	2.531884
	2.495086	2.528364
	2.500526	2.526124
	2.503086	2.561962
	2.507885	2.519725
	2.513325	2.517485
	2.517805	2.516205
	2.525164	2.515565
	2.529964	2.514925
	2.536043	2.513005
	2.540523	2.511725
	2.544683	2.510125
	2.546923	2.508525
	2.548203	2.506606
	2.549162	2.504046
	2.548523	2.502126
	2.547243	2.499886
	2.546283	2.498926
	2.545003	2.497966
	2.542443	2.499886
	2.539883	2.500526
	2.538283	2.502766
	2.534764	2.504366
	2.531884	2.506286
	2.530604	2.508525
	2.528364	2.509485
	2.525804	2.512045
	2.521324	2.512365
	2.517805	2.512685
	2.514285	2.513965
	2.512045	2.515245
	2.507885	2.517165
	2.502446	2.518445
	2.499246	2.523564
	2.494126	2.523884
	2.491247	2.528684
	2.485807	2.533484
	2.480047	2.538923
	2.474288	2.544683
	2.467888	2.545003
	2.464049	2.548842
	2.458929	2.549802
	2.453489	2.551402
	2.447730	2.559722
	2.444850	2.552682
	2.441650	2.553322
	2.437491	2.552682
	2.441970	2.550762
	2.435571	2.551082
	2.436211	2.549482
	2.436851	2.547243
	2.437811	2.543403
	2.442930	2.540203
	2.443570	2.534444
	2.445170	2.528364
	2.445810	2.542123
	2.448690	2.516525
	2.452209	2.509165
	2.481007	2.504686
	2.458609	2.500846
	2.460529	2.503406
	2.461809	2.497006
	2.464049	2.496686
	2.465968	2.497006
	2.467248	2.497646
	2.467888	2.498926
	2.470128	2.498286
	2.470768	2.496366
	2.471728	2.495086
	2.472048	2.493167
	2.584360	2.489327
	2.474288	2.486127
	2.476208	2.485487
	2.479088	2.480367
	2.480367	2.479408
	2.483887	2.478768
	2.487407	2.479088
	2.490287	2.480047
	2.495086	2.482607
	2.498926	2.482287
	2.502126	2.484207
	2.505966	2.486767
	2.617957	2.484847
	2.511725	2.485807
	2.513965	2.486767
	2.515885	2.483247
	2.516525	2.483247
	2.517485	2.481967
	2.519725	2.482927
	2.519725	2.484527
	2.519405	2.486767
	2.519085	2.501166
	2.519725	2.496366
	2.517805	2.503406
	2.515885	2.508525
	2.513325	2.514285
	2.510125	2.521324
	2.506286	2.526444
	2.502126	2.570281
	2.500846	2.538923
	2.496366	2.544043
	2.493487	2.551082
	2.489967	2.557482
	2.487407	2.563881
	2.486447	2.570281
	2.485487	2.767067
	2.485167	2.577000
	2.486767	2.577640
	2.489327	2.576360
	2.490287	2.573161
	2.493167	2.568041
	2.496366	2.561002
	2.499246	2.564521
	2.502766	2.547563
	2.504686	2.539563
	2.510445	2.533804
	2.511725	2.529324
	2.514925	2.526764
	2.516205	2.523244
	2.519085	2.524844
	2.519725	2.518765
	2.521005	2.517485
	2.522924	2.513645
	2.521644	2.511085
	2.563241	2.506286
	2.525804	2.500846
	2.526124	2.497646
	2.525804	2.492847
	2.524844	2.490287
	2.525484	2.488367
	2.524204	2.488367
	2.530924	2.487727
	2.523244	2.489007
	2.522924	2.491247
	2.521964	2.491567
	2.520045	2.494126
	2.518765	2.492847
	2.516845	2.490607
	2.514605	2.488047
	2.513645	2.485487
	2.651875	2.481967
	2.507565	2.479728
	2.504366	2.476848
	2.502766	2.475888
	2.501166	2.485167
	2.499886	2.476848
	2.500526	2.478448
	2.502126	2.481647
	2.503406	2.481967
	2.509485	2.483887
	2.511085	2.484207
	2.515565	2.483247
	2.520045	2.481967
	2.523564	2.482287
	2.525164	2.477808
	2.525804	2.476848
	2.525804	2.473968
	2.525164	2.473648
	2.524844	2.474928
	2.519725	2.478128
	2.516845	2.481007
	2.514925	2.486127
	2.511725	2.495406
	2.511725	2.496046
	2.509805	2.500846
	2.509805	2.504686
	2.509485	2.509165
	2.522604	2.511085
	2.509165	2.513645
	2.510125	2.516205
	2.512045	2.516205
	2.513005	2.515885
	2.512365	2.515245
	2.512365	2.667554
	2.513005	2.515245
	2.513965	2.515565
	2.519405	2.515245
	2.516525	2.515245
	2.516205	2.514605
	2.517485	2.514605
	2.521644	2.515565
	2.520685	2.515885
	2.521005	2.523564
	2.521005	2.519085
	2.521324	2.521644
	2.519085	2.525164
	2.518125	2.528044
	2.519085	2.532844
	2.510765	2.537323
	2.507885	2.539883
	2.503726	2.544363
	2.499246	2.547243
	2.497006	2.548203
	2.497646	2.550762
	2.496686	2.547883
	2.497006	2.545003
	2.498286	2.542763
	2.500846	2.541163
	2.506606	2.538603
	2.505646	2.536363
	2.508525	2.535083
	2.510445	2.534764
	2.511725	2.533484
	2.512365	2.533164
	2.511405	2.535403
	2.508845	2.534764
	2.506606	2.550762
	2.503406	2.532524
	2.499246	2.568361
	2.495406	2.528684
	2.489967	2.526444
	2.493806	2.524844
	2.481647	2.524524
	2.484527	2.524524
	2.473648	2.526444
	2.471088	2.529324
	2.469808	2.532844
	2.469168	2.535723
	2.468528	2.537643
	2.469808	2.540203
	2.471408	2.534444
	2.472688	2.647395
	2.474928	2.526124
	2.475888	2.519725
	2.480367	2.513325
	2.484207	2.505646
	2.488687	2.502126
	2.488367	2.498606
	2.492847	2.497646
	2.493167	2.499566
	2.496046	2.503406
	2.497326	2.506606
	2.498286	2.510765
	2.498286	2.513005
	2.499246	2.521005
	2.499246	2.516205
	2.497966	2.535083
	2.497646	2.515245
	2.495406	2.545643
	2.492847	2.513005
	2.491887	2.511725
	2.491887	2.512365
	2.489007	2.513645
	2.499886	2.517485
	2.488367	2.521005
	2.487407	2.524524
	2.487727	2.527084
	2.487407	2.529004
	2.489327	2.529324
	2.491887	2.526444
	2.493487	2.523564
	2.495406	2.516845
	2.497966	2.512365
	2.500206	2.508205
	2.503086	2.503086
	2.507565	2.503406
	2.508845	2.499566
	2.511085	2.506606
	2.514605	2.498606
	2.518125	2.536043
	2.520045	2.497646
	2.522284	2.496046
	2.523244	2.495086
	2.522924	2.492527
	2.526764	2.489327
	2.523244	2.485807
	2.562282	2.481967
	2.524524	2.479088
	2.584040	2.477488
	2.521644	2.477488
	2.520365	2.479728
	2.520045	2.481007
	2.516845	2.487087
	2.516205	2.491247
	2.513005	2.494446
	2.508525	2.497966
	2.505006	2.501806
	2.501486	2.501806
	2.496686	2.501486
	2.492207	2.500846
	2.487087	2.500526
	2.484527	2.497646
	2.480687	2.499246
	2.478768	2.498286
	2.476848	2.499246
	2.474928	2.500846
	2.475568	2.506926
	2.478128	2.506606
	2.476848	2.513645
	2.478768	2.510125
	2.479728	2.515885
	2.482607	2.510765
	2.484207	2.511725
	2.485807	2.504046
	2.488047	2.517485
	2.489967	2.494766
	2.491567	2.629157
	2.493167	2.487087
	2.495726	2.605478
	2.497966	2.484207
	2.500206	2.484847
	2.501806	2.486767
	2.502766	2.496686
	2.511725	2.492527
	2.505646	2.498926
	2.509805	2.502766
	2.506286	2.508845
	2.508205	2.510445
	2.506286	2.512685
	2.510125	2.517485
	2.506606	2.520685
	2.520045	2.524204
	2.505006	2.528684
	2.519085	2.531564
	2.503086	2.536363
	2.506606	2.540523
	2.503086	2.545643
	2.518445	2.548842
	2.502766	2.551722
	2.515245	2.554282
	2.502766	2.554282
	2.515565	2.556202
	2.506286	2.554922
	2.518445	2.551402
	2.512045	2.549482
	2.529964	2.546283
	2.517165	2.545003
	2.546283	2.541163
	2.523244	2.538923
	2.540843	2.537963
	2.526444	2.536683
	2.530604	2.534764
	2.528364	2.534124
	2.548523	2.533164
	2.531244	2.533164
	2.689312	2.531564
	2.532204	2.535723
	2.542123	2.529004
	2.530284	2.582760
	2.535723	2.524204
	2.531564	2.523564
	2.535723	2.521644
	2.529004	2.622437
	2.532204	2.522284
	2.527084	2.689632
	2.528364	2.527084
	2.522604	2.631716
	2.521005	2.531244
	2.518445	2.535403
	2.515885	2.532524
	2.513005	2.661474
	2.511405	2.530604
	2.504366	2.540523
	2.500526	2.526124
	2.496366	2.536043
	2.493167	2.519725
	2.490287	2.518765
	2.487407	2.518765
	2.485167	2.518765
	2.484207	2.520685
	2.481327	2.521644
	2.480687	2.521964
	2.480367	2.524204
	2.480047	2.529964
	2.480047	2.521005
	2.477808	2.521964
	2.477808	2.517805
	2.475568	2.512685
	2.473968	2.513005
	2.474608	2.512365
	2.473008	2.507246
	2.473328	2.563881
	2.475568	2.504686
	2.476528	2.507246
	2.480047	2.505326
	2.483247	2.589800
	2.487087	2.507885
	2.489967	2.518445
	2.494766	2.507565
	2.496686	2.515245
	2.519085	2.504366
	2.502446	2.499886
	2.513005	2.496046
	2.504686	2.493806
	2.506286	2.492527
	2.510125	2.489007
	2.510445	2.484207
	2.510445	2.484207
	2.514925	2.485487
	2.516525	2.484527
	2.520045	2.487727
	2.523244	2.489327
	2.524844	2.491567
	2.525164	2.492527
	2.525164	2.564521
	2.525804	2.491887
	2.524204	2.491247
	2.523564	2.488047
	2.522604	2.485807
	2.521005	2.482287
	2.519725	2.480687
	2.578600	2.478768
	2.518765	2.477488
	2.537003	2.479728
	2.516205	2.485487
	2.517485	2.487087
	2.516205	2.492207
	2.514285	2.495406
	2.512365	2.500206
	2.507885	2.504686
	2.506286	2.506926
	2.501486	2.533804
	2.497646	2.509805
	2.495086	2.524524
	2.493806	2.509485
	2.489647	2.509485
	2.487407	2.511085
	2.486767	2.512045
	2.618917	2.516205
	2.485487	2.527084
	2.491887	2.522924
	2.485807	2.537323
	2.486767	2.529644
	2.483247	2.605478
	2.483887	2.538923
	2.481007	2.542763
	2.479728	2.639716
	2.481967	2.652195
	2.477168	2.544683
	2.477168	2.546603
	2.475888	2.591399
	2.475888	2.547243
	2.476528	2.578280
	2.477168	2.550122
	2.480367	2.546603
	2.486127	2.554922
	2.487727	2.562601
	2.491247	2.646115
	2.492847	2.565481
	2.497646	2.657635
	2.499886	2.558122
	2.502766	2.558762
	2.504366	2.606438
	2.506286	2.530924
	2.507565	2.545323
	2.511085	2.532844
	2.545003	2.525484
	2.515885	2.528364
	2.517805	2.517805
	2.518765	2.517165
	2.520685	2.526764
	2.521644	2.511405
	2.522604	2.503406
	2.522604	2.511085
	2.523244	2.510125
	2.521324	2.501166
	2.521005	2.503726
	2.521644	2.499566
	2.519085	2.498926
	2.532204	2.494766
	2.519085	2.494126
	2.520365	2.493167
	2.519405	2.494126
	2.521644	2.492207
	2.519085	2.490927
	2.515885	2.485807
	2.514605	2.487407
	2.509165	2.483887
	2.508205	2.518765
	2.503086	2.479088
	2.508205	2.556522
	2.494766	2.472048
	2.493167	2.473648
	2.491887	2.465649
	2.490287	2.461809
	2.491887	2.456689
	2.493167	2.453809
	2.497966	2.452849
	2.499886	2.447090
	2.513965	2.537643
	2.505966	2.446770
	2.522284	2.485167
	2.511725	2.447410
	2.514925	2.455089
	2.515245	2.455089
	2.516525	2.459249
	2.519725	2.465009
	2.522604	2.468528
	2.546283	2.478128
	2.535403	2.478768
	2.551082	2.565481
	2.551402	2.489327
	2.557482	2.495726
	2.565161	2.499246
	2.569961	2.501806
	2.574441	2.505646
	2.577000	2.507565
	2.607078	2.510765
	2.576041	2.509165
	2.582120	2.519085
	2.570281	2.512045
	2.575721	2.516525
	2.566441	2.517805
	2.569641	2.521644
	2.572521	2.524524
	2.619557	2.526444
	2.578920	2.529324
	2.591399	2.530924
	2.572841	2.621477
	2.579240	2.531564
	2.576680	2.530284
	2.575401	2.526124
	2.587240	2.524524
	2.640036	2.523244
	2.558122	2.520365
	2.555562	2.522284
	2.545643	2.523564
	2.539563	2.533804
	2.538923	2.530924
	2.528684	2.535403
	2.521964	2.539883
	2.516845	2.544683
	2.512685	2.548842
	2.516525	2.549482
	2.504366	2.552682
	2.500206	2.545963
	2.498286	2.561962
	2.497006	2.540203
	2.493806	2.537323
	2.497326	2.533164
	2.490607	2.530924
	2.490287	2.530284
	2.493167	2.529324
	2.490927	2.539563
	2.493487	2.530284
	2.496046	2.530604
	2.500526	2.528364
	2.498606	2.527404
	2.501166	2.523884
	2.502126	2.519085
	2.502446	2.519405
	2.504686	2.509165
	2.503406	2.528364
	2.503726	2.503086
	2.497966	2.501486
	2.495086	2.502766
	2.489967	2.507246
	2.487407	2.517485
	2.485487	2.515565
	2.483247	2.526124
	2.483887	2.526444
	2.483247	2.530604
	2.483247	2.532204
	2.482607	2.531564
	2.484207	2.530924
	2.485487	2.524204
	2.486447	2.522284
	2.488367	2.511405
	2.489007	2.505966
	2.490927	2.502446
	2.493167	2.497326
	2.494126	2.495726
	2.496366	2.496046
	2.498606	2.506606
	2.500206	2.499886
	2.503086	2.502446
	2.503726	2.547243
	2.504366	2.507885
	2.504366	2.510445
	2.503086	2.510765
	2.497966	2.515885
	2.496366	2.512045
	2.490607	2.510765
	2.486447	2.513645
	2.481647	2.511085
	2.478448	2.510445
	2.475888	2.512365
	2.472368	2.513965
	2.470768	2.516525
	2.471408	2.514605
	2.470128	2.516205
	2.472048	2.514605
	2.472048	2.512045
	2.473328	2.508205
	2.476848	2.503086
	2.479088	2.505326
	2.480687	2.491887
	2.484527	2.489007
	2.487727	2.483567
	2.492207	2.486447
	2.498926	2.477168
	2.502766	2.477168
	2.510765	2.478128
	2.518765	2.479088
	2.526764	2.480687
	2.536043	2.481327
	2.542763	2.482607
	2.549482	2.483567
	2.557802	2.481647
	2.565481	2.481327
	2.572521	2.480687
	2.577640	2.485487
	2.583080	2.483247
	2.590119	2.481647
	2.595559	2.483567
	2.600679	2.485487
	2.602919	2.488367
	2.605158	2.489967
	2.604198	2.491887
	2.601959	2.495406
	2.597159	2.496046
	2.593959	2.496366
	2.584360	2.532844
	2.577000	2.496686
	2.568681	2.497326
	2.561962	2.497326
	2.557482	2.499246
	2.550762	2.499566
	2.546283	2.503726
	2.542763	2.506606
	2.541483	2.509485
	2.540843	2.513645
	2.539243	2.517485
	2.538923	2.521324
	2.536683	2.524844
	2.536043	2.525164
	2.532204	2.528044
	2.528044	2.528684
	2.521644	2.529644
	2.514925	2.529964
	2.559722	2.529644
	2.503406	2.531884
	2.498286	2.531564
	2.491567	2.532524
	2.486127	2.537963
	2.482607	2.538283
	2.480047	2.540523
	2.478128	2.543723
	2.475888	2.545003
	2.474608	2.547243
	2.554602	2.546923
	2.473648	2.547883
	2.472048	2.546603
	2.470448	2.545003
	2.470448	2.545323
	2.469488	2.539563
	2.472048	2.535083
	2.473328	2.529324
	2.487087	2.521005
	2.482287	2.516845
	2.498606	2.509805
	2.489967	2.503406
	2.509165	2.499246
	2.585000	2.493806
	2.504366	2.491247
	2.533164	2.488047
	2.512045	2.487727
	2.520045	2.487727
	2.522604	2.488047
	2.527084	2.489007
	2.524844	2.489967
	2.513965	2.491247
	2.549482	2.547883
	2.515245	2.491887
	2.509805	2.491887
	2.519085	2.491567
	2.572841	2.491567
	2.514925	2.495086
	2.509165	2.492207
	2.508205	2.494126
	2.512685	2.495406
	2.584360	2.499566
	2.528364	2.502126
	2.515885	2.505966
	2.511725	2.508205
	2.522604	2.512365
	2.518125	2.513645
	2.527404	2.515245
	2.520365	2.514285
	2.521964	2.513005
	2.521005	2.518445
	2.520685	2.507246
	2.600679	2.505006
	2.511405	2.503406
	2.520365	2.502446
	2.510445	2.503086
	2.508525	2.500846
	2.542763	2.501166
	2.511725	2.501166
	2.513645	2.501806
	2.513325	2.501486
	2.510445	2.502446
	2.591079	2.501486
	2.509805	2.506606
	2.509805	2.500206
	2.556522	2.499566
	2.508205	2.498606
	2.516205	2.498926
	2.506926	2.499566
	2.504686	2.499246
	2.581800	2.502126
	2.500526	2.508525
	2.500846	2.507565
	2.506926	2.512045
	2.496686	2.514605
	2.502766	2.516525
	2.492527	2.519725
	2.489967	2.520685
	2.503726	2.521324
	2.489007	2.521644
	2.486767	2.519725
	2.484527	2.517165
	2.487087	2.514285
	2.486767	2.511405
	2.485807	2.510765
	2.483567	2.509805
	2.524844	2.511085
	2.480687	2.519085
	2.481007	2.515565
	2.481327	2.518445
	2.480367	2.521644
	2.506286	2.523244
	2.480687	2.525804
	2.479408	2.525484
	2.556522	2.524524
	2.480047	2.529644
	2.479728	2.523564
	2.479728	2.522604
	2.480367	2.521644
	2.502126	2.521005
	2.481007	2.522924
	2.481647	2.521964
	2.488047	2.525484
	2.485167	2.527724
	2.485487	2.530924
	2.488047	2.532204
	2.490607	2.537323
	2.494446	2.534764
	2.495406	2.534444
	2.498286	2.533164
	2.509805	2.530284
	2.504686	2.528044
	2.507246	2.523244
	2.520045	2.521005
	2.510445	2.522604
	2.511405	2.516205
	2.521964	2.513965
	2.513965	2.523564
	2.527724	2.512365
	2.514925	2.511405
	2.514925	2.509485
	2.517165	2.508525
	2.517485	2.505646
	2.516205	2.502766
	2.521964	2.499566
	2.517805	2.497966
	2.516845	2.496046
	2.553002	2.496046
	2.513325	2.498286
	2.521005	2.496686
	2.511405	2.497966
	2.509485	2.536043
	2.512685	2.502126
	2.507246	2.503726
	2.505326	2.504046
	2.506926	2.504366
	2.504046	2.505006
	2.502446	2.504366
	2.506606	2.503726
	2.503406	2.502766
	2.505006	2.501166
	2.518445	2.500206
	2.506286	2.500846
	2.510125	2.498286
	2.508845	2.497966
	2.511085	2.505326
	2.514605	2.498286
	2.513965	2.498926
	2.513965	2.498926
	2.516205	2.497966
	2.514925	2.498926
	2.513645	2.497326
	2.514925	2.495726
	2.512685	2.496046
	2.514285	2.494446
	2.520685	2.492847
	2.513325	2.493487
	2.517485	2.493806
	2.538283	2.494446
	2.513645	2.497326
	2.514605	2.498286
	2.526764	2.501486
	2.513965	2.507885
	2.513965	2.506286
	2.514285	2.506286
	2.512685	2.566121
	2.512045	2.509805
	2.509805	2.512365
	2.508205	2.518445
	2.505966	2.517165
	2.502446	2.520045
	2.498606	2.525804
	2.494766	2.529324
	2.491567	2.533804
	2.488047	2.536683
	2.485487	2.538923
	2.481007	2.539883
	2.478448	2.538603
	2.479088	2.537323
	2.477808	2.535083
	2.479088	2.531564
	2.488047	2.529964
	2.481967	2.529004
	2.484847	2.527724
	2.503086	2.525804
	2.492527	2.525164
	2.496366	2.522604
	2.530284	2.519085
	2.501806	2.519085
	2.505006	2.513005
	2.505326	2.508205
	2.506926	2.506926
	2.507246	2.500206
	2.506286	2.498606
	2.505966	2.498606
	2.504366	2.496686
	2.503406	2.497966
	2.503726	2.502766
	2.502126	2.503086
	2.501486	2.505966
	2.502126	2.511405
	2.501166	2.508205
	2.500846	2.507565
	2.500526	2.512365
	2.497006	2.506926
	2.495406	2.506606
	2.493487	2.506606
	2.491567	2.503726
	2.489007	2.501486
	2.482927	2.504046
	2.487087	2.500526
	2.487727	2.497646
	2.488367	2.498926
	2.489327	2.496686
	2.491247	2.497006
	2.493806	2.498926
	2.494766	2.498606
	2.494126	2.499566
	2.494446	2.502766
	2.495406	2.503086
	2.494766	2.501486
	2.495406	2.502766
	2.495406	2.498926
	2.496366	2.496366
	2.497326	2.495086
	2.498606	2.491887
	2.502126	2.489967
	2.502126	2.491247
	2.504686	2.491567
	2.552042	2.494126
	2.507246	2.495726
	2.507565	2.498286
	2.537003	2.500206
	2.508525	2.500526
	2.508205	2.500526
	2.510765	2.498606
	2.506926	2.496686
	2.503726	2.493167
	2.505006	2.493487
	2.501166	2.494126
	2.498926	2.493167
	2.499886	2.494766
	2.499566	2.496686
	2.499886	2.591399
	2.501486	2.500526
	2.502126	2.501486
	2.504046	2.501806
	2.506606	2.498286
	2.508205	2.498606
	2.507885	2.502126
	2.507565	2.493167
	2.506926	2.491567
	2.505006	2.493487
	2.505006	2.494446
	2.573161	2.495406
	2.502766	2.500206
	2.503726	2.502766
	2.519405	2.506286
	2.503406	2.508525
	2.503406	2.510125
	2.512365	2.510445
	2.502446	2.511725
	2.502446	2.513325
	2.502126	2.510765
	2.497966	2.511405
	2.497646	2.514605
	2.495086	2.511405
	2.495406	2.511725
	2.494766	2.512365
	2.494126	2.511085
	2.523244	2.509165
	2.494766	2.507885
	2.496046	2.541163
	2.576680	2.504366
	2.498926	2.503406
	2.498606	2.563881
	2.503086	2.503726
	2.501166	2.504366
	2.501486	2.587560
	2.503086	2.566761
	2.501806	2.508525
	2.501486	2.519085
	2.502766	2.574761
	2.502446	2.505646
	2.501486	2.510125
	2.502126	2.537323
	2.501166	2.545003
	2.499566	2.508205
	2.498926	2.520685
	2.534764	2.516205
	2.497966	2.520045
	2.497646	2.527724
	2.497646	2.529004
	2.497006	2.532524
	2.497646	2.539563
	2.498286	2.616998
	2.499246	2.623077
	2.501166	2.548203
	2.502766	2.529644
	2.558442	2.533484
	2.503406	2.534444
	2.503406	2.524844
	2.508205	2.539883
	2.502766	2.568361
	2.501486	2.535403
	2.501486	2.538923
	2.501166	2.544683
	2.500846	2.543083
	2.501806	2.542763
	2.503406	2.542123
	2.500526	2.539243
	2.500846	2.530284
	2.501806	2.538283
	2.497966	2.538283
	2.496046	2.533164
	2.495086	2.532204
	2.493167	2.586280
	2.490927	2.532524
	2.489647	2.531884
	2.501166	2.534764
	2.489967	2.526444
	2.489327	2.525164
	2.489007	2.521644
	2.489007	2.525164
	2.490607	2.513005
	2.491567	2.509805
	2.488687	2.513005
	2.489007	2.509805
	2.488367	2.513645
	2.490287	2.515885
	2.487087	2.515245
	2.487727	2.515885
	2.487407	2.514925
	2.485807	2.513965
	2.485487	2.511085
	2.484527	2.509485
	2.497006	2.510765
	2.482287	2.509805
	2.482927	2.510125
	2.484527	2.513645
	2.483887	2.516525
	2.484847	2.519405
	2.486447	2.523884
	2.501806	2.526764
	2.488687	2.529004
	2.487087	2.529004
	2.490287	2.527724
	2.492847	2.525804
	2.493167	2.521964
	2.494446	2.518445
	2.546283	2.517805
	2.495726	2.516845
	2.499246	2.519085
	2.501806	2.521644
	2.502126	2.526124
	2.503406	2.527724
	2.506286	2.530604
	2.521964	2.533164
	2.507246	2.531884
	2.510765	2.529324
	2.509485	2.526124
	2.509805	2.522284
	2.510445	2.516845
	2.511085	2.514605
	2.514605	2.511725
	2.511725	2.509485
	2.513005	2.510765
	2.513965	2.513005
	2.513965	2.513325
	2.512365	2.514605
	2.513965	2.514925
	2.519085	2.512365
	2.513325	2.510765
	2.512045	2.506286
	2.511405	2.502446
	2.525804	2.498606
	2.505966	2.495086
	2.501486	2.494446
	2.498606	2.494446
	2.495406	2.496686
	2.492527	2.500526
	2.491247	2.502446
	2.490927	2.504366
	2.490927	2.505966
	2.490927	2.506606
	2.492847	2.504366
	2.493487	2.500846
	2.492847	2.497006
	2.492207	2.491247
	2.493487	2.485807
	2.491887	2.482927
	2.492527	2.480687
	2.491887	2.477808
	2.507885	2.476528
	2.495726	2.480367
	2.499246	2.482607
	2.503726	2.488047
	2.552042	2.492527
	2.507565	2.494766
	2.509485	2.497646
	2.512685	2.495726
	2.508205	2.494126
	2.506606	2.490927
	2.504366	2.486767
	2.509805	2.485167
	2.503406	2.483247
	2.502446	2.484847
	2.502766	2.489007
	2.512045	2.495086
	2.502766	2.501806
	2.503406	2.509165
	2.503406	2.514925
	2.515885	2.517805
	2.499566	2.517485
	2.500846	2.514285
	2.500526	2.508845
	2.499886	2.503406
	2.499886	2.496046
	2.500206	2.492207
	2.505966	2.490607
	2.503406	2.490927
	2.504046	2.495086
	2.503406	2.500206
	2.508205	2.506926
	2.569641	2.513325
	2.501486	2.516205
	2.499886	2.515565
	2.508845	2.512365
	2.502766	2.505966
	2.499246	2.500206
	2.500846	2.493167
	2.520685	2.486767
	2.501166	2.482927
	2.500846	2.482927
	2.506286	2.485487
	2.509485	2.489327
	2.505326	2.496686
	2.501166	2.501806
	2.504686	2.506606
	2.506606	2.509165
	2.514925	2.509485
	2.500526	2.508525
	2.500526	2.505006
	2.513325	2.502126
	2.529964	2.498286
	2.491567	2.495406
	2.492527	2.494126
	2.530284	2.496366
	2.496046	2.499566
	2.490287	2.504686
	2.495406	2.509805
	2.499886	2.516525
	2.506286	2.521005
	2.506286	2.524204
	2.500526	2.527404
	2.501166	2.528684
	2.509165	2.528044
	2.515245	2.525164
	2.500206	2.518765
	2.505326	2.515885
	2.523564	2.511725
	2.531564	2.506286
	2.512685	2.503726
	2.517485	2.500846
	2.565801	2.501486
	2.523564	2.503086
	2.523884	2.507565
	2.525164	2.513965
	2.527724	2.520365
	2.519405	2.527404
	2.513325	2.532524
	2.508845	2.536683
	2.506926	2.537963
	2.502446	2.537323
	2.497966	2.533484
	2.496686	2.529644
	2.506606	2.525164
	2.498286	2.521964
	2.495406	2.518445
	2.496366	2.519085
	2.494446	2.522604
	2.492847	2.529324
	2.491887	2.537643
	2.491247	2.547563
	2.489647	2.555882
	2.487407	2.563561
	2.487407	2.566121
	2.487727	2.565801
	2.489327	2.560362
	2.489647	2.551402
	2.492527	2.539563
	2.495086	2.527084
	2.497966	2.515245
	2.501166	2.504366
	2.501166	2.498286
	2.502446	2.498286
	2.502766	2.500206
	2.502126	2.506926
	2.502126	2.517485
	2.500206	2.527724
	2.497966	2.535083
	2.498286	2.540203
	2.497966	2.539563
	2.496046	2.534124
	2.497006	2.523244
	2.497006	2.509805
	2.497646	2.494446
	2.500206	2.482287
	2.502766	2.472688
	2.504366	2.470768
	2.507565	2.474608
	2.508525	2.486447
	2.509165	2.501486
	2.508205	2.521644
	2.506926	2.538603
	2.505326	2.553322
	2.502766	2.561002
	2.501166	2.566121
	2.497006	2.565481
	2.494766	2.557162
	2.492207	2.544683
	2.488047	2.529964
	2.489007	2.514925
	2.486447	2.502446
	2.485167	2.493167
	2.487087	2.489327
	2.487727	2.489647
	2.487407	2.495406
	2.489327	2.502126
	2.489327	2.511405
	2.490927	2.520365
	2.492207	2.525484
	2.494126	2.528684
	2.493806	2.528044
	2.493806	2.526124
	2.497006	2.520045
	2.499246	2.511725
	2.497646	2.504046
	2.500846	2.497646
	2.504686	2.491567
	2.505006	2.489327
	2.507885	2.489327
	2.509485	2.491887
	2.510445	2.498606
	2.509805	2.505006
	2.508525	2.515885
	2.506606	2.524204
	2.505966	2.531884
	2.504686	2.538283
	2.501166	2.541483
	2.499246	2.542763
	2.496686	2.540523
	2.494126	2.536043
	2.492207	2.529964
	2.491567	2.523244
	2.491887	2.515565
	2.490607	2.510445
	2.489967	2.506926
	2.489327	2.505326
	2.489647	2.506286
	2.488367	2.509805
	2.490607	2.513965
	2.491247	2.520685
	2.491567	2.526764
	2.493167	2.531244
	2.494446	2.534124
	2.495406	2.533484
	2.497326	2.531564
	2.499566	2.527724
	2.499886	2.521324
	2.500846	2.513645
	2.502126	2.507246
	2.501806	2.500846
	2.501486	2.495086
	2.500846	2.491567
	2.501486	2.489327
	2.500526	2.491247
	2.501486	2.492847
	2.502766	2.499246
	2.503726	2.502766
	2.507565	2.508525
	2.509165	2.510765
	2.512045	2.513645
	2.514285	2.514285
	2.515885	2.513645
	2.515565	2.510765
	2.516205	2.505326
	2.513965	2.500206
	2.512685	2.495406
	2.511085	2.491247
	2.510125	2.488367
	2.506926	2.487407
	2.506286	2.489647
	2.506606	2.494446
	2.508205	2.499246
	2.509165	2.506606
	2.509485	2.512045
	2.513005	2.517485
	2.515885	2.520685
	2.516845	2.520045
	2.516845	2.519085
	2.517485	2.513965
	2.517485	2.508525
	2.514925	2.504046
	2.511405	2.497966
	2.508525	2.495086
	2.507246	2.493487
	2.505326	2.493167
	2.502446	2.493806
	2.501166	2.499886
	2.500526	2.505966
	2.499886	2.512045
	2.498606	2.518445
	2.497966	2.523884
	2.497326	2.528684
	2.497006	2.531244
	2.494126	2.533804
	2.492527	2.533804
	2.488367	2.531244
	2.484207	2.527404
	2.482927	2.522604
	2.480687	2.518765
	2.480367	2.514285
	2.480367	2.510125
	2.481007	2.509805
	2.482287	2.509165
	2.486127	2.511405
	2.488687	2.514605
	2.489967	2.517805
	2.492847	2.521644
	2.495086	2.524204
	2.495406	2.524524
	2.494766	2.523564
	2.493487	2.519405
	2.493487	2.513965
	2.491567	2.508205
	2.490607	2.502446
	2.492207	2.497646
	2.490927	2.496366
	2.493167	2.496046
	2.493806	2.496686
	2.495086	2.498926
	2.498286	2.502446
	2.497646	2.507246
	2.499246	2.509485
	2.500206	2.511085
	2.501806	2.511725
	2.499566	2.512365
	2.499246	2.512045
	2.498286	2.510445
	2.497966	2.509805
	2.496686	2.508525
	2.495406	2.508845
	2.494126	2.509485
	2.493487	2.509165
	2.492847	2.509165
	2.492207	2.510125
	2.492847	2.509485
	2.491887	2.510445
	2.490927	2.509165
	2.489647	2.509165
	2.488687	2.508525
	2.488367	2.510125
	2.486127	2.509805
	2.486447	2.509485
	2.486447	2.508525
	2.486447	2.507565
	2.487407	2.505326
	2.491247	2.504686
	2.493167	2.501486
	2.494446	2.501166
	2.497006	2.500846
	2.498286	2.499246
	2.498286	2.500526
	2.499566	2.500846
	2.499566	2.502126
	2.499246	2.511085
	2.499886	2.503726
	2.499246	2.504046
	2.497966	2.503406
	2.498606	2.503406
	2.497326	2.503406
	2.498926	2.504046
	2.497966	2.505646
	2.498286	2.508205
	2.498286	2.512685
	2.498286	2.517165
	2.498926	2.522604
	2.497966	2.526124
	2.498606	2.528364
	2.497006	2.529644
	2.496366	2.528684
	2.496046	2.527084
	2.495086	2.524844
	2.495406	2.521644
	2.493806	2.518125
	2.495406	2.514285
	2.496046	2.622117
	2.497326	2.509485
	2.498286	2.506926
	2.499566	2.504046
	2.502126	2.502446
	2.504046	2.500846
	2.505966	2.643236
	2.507246	2.502766
	2.507885	2.502446
	2.506606	2.504686
	2.505966	2.506286
	2.505646	2.507885
	2.503086	2.510125
	2.501806	2.551082
	2.500526	2.511405
	2.497966	2.512365
	2.497646	2.511725
	2.496366	2.510765
	2.494126	2.572201
	2.492847	2.508845
	2.491247	2.507885
	2.489967	2.507565
	2.489647	2.511085
	2.490607	2.594599
	2.493167	2.522284
	2.496046	2.512685
	2.499566	2.707551
	2.501486	2.500526
	2.505326	2.502126
	2.507246	2.512045
	2.509165	2.534764
	2.508845	2.626917
	2.508845	2.504366
	2.504686	2.505326
	2.502766	2.512685
	2.499246	2.530284
	2.495726	2.569001
	2.494126	2.540203
	2.490927	2.542443
	2.490927	2.508845
	2.489967	2.501806
	2.491247	2.503726
	2.492207	2.499566
	2.492847	2.504046
	2.493806	2.586280
	2.497966	2.504046
	2.500846	2.509165
	2.501806	2.513645
	2.504046	2.517805
	2.506926	2.512365
	2.508205	2.518765
	2.508205	2.500526
	2.508525	2.499886
	2.508525	2.517805
	2.506926	2.506286
	2.506926	2.497966
	2.505646	2.536683
	2.504686	2.564841
	2.501166	2.503086
	2.500846	2.513645
	2.501166	2.517165
	2.501806	2.521644
	2.501166	2.525164
	2.501166	2.545643
	2.499246	2.528364
	2.497966	2.524524
	2.496686	2.524524
	2.494766	2.523564
	2.492207	2.521964
	2.491247	2.521644
	2.492207	2.539243
	2.493806	2.510445
	2.495726	2.510125
	2.497966	2.509165
	2.501166	2.508845
	2.501486	2.515885
	2.502446	2.518445
	2.500526	2.591719
	2.499566	2.518125
	2.497006	2.524524
	2.495406	2.526764
	2.493806	2.529644
	2.491247	2.537323
	2.491247	2.544363
	2.492207	2.697312
	2.494446	2.516525
	2.495086	2.511725
	2.497966	2.508525
	2.500846	2.526764
	2.502446	2.507246
	2.504366	2.505646
	2.505326	2.504046
	2.507565	2.508205
	2.507565	2.511725
	2.507565	2.513325
	2.507565	2.520685
	2.506926	2.518125
	2.505966	2.520685
	2.504046	2.517805
	2.502446	2.515565
	2.499886	2.512365
	2.497966	2.512685
	2.495086	2.517805
	2.494766	2.543723
	2.492847	2.534444
	2.493167	2.525804
	2.491887	2.524524
	2.493806	2.528044
	2.493806	2.530284
	2.494446	2.533164
	2.494446	2.537003
	2.495406	2.536363
	2.496686	2.664994
	2.497646	2.521324
	2.497646	2.516525
	2.499886	2.512685
	2.500526	2.510125
	2.503726	2.507565
	2.503726	2.505646
	2.505966	2.508845
	2.506926	2.505646
	2.506286	2.507565
	2.506286	2.514285
	2.506606	2.513645
	2.504686	2.514285
	2.502766	2.514285
	2.500206	2.515565
	2.497326	2.518445
	2.497326	2.581800
	2.494446	2.511725
	2.493167	2.512685
	2.493167	2.511405
	2.490927	2.511725
	2.490607	2.520045

