LabVIEW Measurement	
Writer_Version	2
Reader_Version	2
Separator	Tab
Decimal_Separator	.
Multi_Headings	Yes
X_Columns	No
Time_Pref	Absolute
Operator	jerem
Date	2023/01/31
Time	16:32:31.485151530035002651
***End_of_Header***	
	
Channels	2		
Samples	6806	6806	
Date	2023/01/31	2023/01/31	
Time	16:32:31.485151530035002651	16:32:31.4851640297809378526	
Y_Unit_Label	Volts	Volts	
X_Dimension	Time	Time	
X0	0.0000000000000000E+0	0.0000000000000000E+0	
Delta_X	0.001000	0.001000	
***End_of_Header***			
X_Value	Voltage_0	Voltage_1	Comment
	2.524204	2.500846
	2.528044	2.499566
	2.528364	2.498926
	2.532844	2.498606
	2.534764	2.498286
	2.536043	2.498606
	2.535723	2.499566
	2.535403	2.502446
	2.533484	2.504686
	2.531564	2.509165
	2.527084	2.513965
	2.523884	2.518445
	2.520045	2.522284
	2.514285	2.527404
	2.507885	2.642916
	2.501166	2.537003
	2.497006	2.540203
	2.494446	2.542123
	2.491887	2.544043
	2.492207	2.543723
	2.493806	2.543723
	2.497326	2.543083
	2.498606	2.543083
	2.503726	2.542123
	2.506926	2.541483
	2.508205	2.540523
	2.507565	2.540843
	2.507885	2.541163
	2.507565	2.540523
	2.505646	2.541803
	2.503406	2.543403
	2.503086	2.708511
	2.501486	2.731229
	2.505326	2.699552
	2.509805	2.649635
	2.518445	2.720670
	2.529644	2.548203
	2.536363	2.545963
	2.550442	2.544043
	2.564841	2.539883
	2.577640	2.533484
	2.588840	2.527404
	2.595559	2.519405
	2.600039	2.521964
	2.604198	2.503726
	2.604838	2.516525
	2.603239	2.532524
	2.599719	2.508205
	2.594919	2.497006
	2.588520	2.499886
	2.583080	2.505006
	2.580200	2.515245
	2.575401	2.516845
	2.571881	2.557802
	2.566761	2.573481
	2.562282	2.581160
	2.560042	2.594279
	2.556202	2.648355
	2.552042	2.576680
	2.547243	2.615078
	2.541803	2.572521
	2.537643	2.529644
	2.532524	2.514285
	2.526764	2.522924
	2.521964	2.662434
	2.517805	2.469488
	2.515565	2.468848
	2.512685	2.463089
	2.510765	2.474928
	2.510765	2.463089
	2.509165	2.475248
	2.510445	2.506606
	2.509805	2.507885
	2.509485	2.540203
	2.508845	2.706591
	2.506606	2.524204
	2.505326	2.554922
	2.504046	2.530604
	2.501166	2.562921
	2.497006	2.536043
	2.493806	2.486447
	2.491887	2.480047
	2.489967	2.470128
	2.489647	2.472048
	2.490927	2.470128
	2.493487	2.473968
	2.497006	2.477488
	2.504046	2.474928
	2.511405	2.479408
	2.521644	2.488687
	2.531884	2.497646
	2.537963	2.491567
	2.547243	2.504046
	2.552042	2.488687
	2.555242	2.592679
	2.554602	2.475568
	2.553002	2.467568
	2.546283	2.460849
	2.536363	2.459249
	2.524524	2.456689
	2.511725	2.459249
	2.503086	2.468848
	2.492847	2.481327
	2.483887	2.499246
	2.480047	2.526764
	2.479088	2.544363
	2.480367	2.568681
	2.486447	2.585960
	2.494126	2.686433
	2.502126	2.605798
	2.507885	2.622757
	2.513005	2.552362
	2.515885	2.539883
	2.516205	2.532204
	2.513005	2.526444
	2.507246	2.523564
	2.502766	2.530284
	2.496046	2.551402
	2.491247	2.577960
	2.490607	2.632356
	2.491887	2.679073
	2.494446	2.724190
	2.504046	2.797784
	2.514925	2.790745
	2.525804	2.792985
	2.534444	2.897617
	2.540523	2.785945
	2.543723	2.846421
	2.542763	2.732189
	2.535403	2.698592
	2.531884	2.654115
	2.522924	2.618277
	2.515245	2.596199
	2.510765	2.652515
	2.514605	2.564201
	2.519725	2.596519
	2.533164	2.768027
	2.552362	2.561002
	2.577000	2.553322
	2.600359	2.558442
	2.614438	2.560042
	2.631716	2.559722
	2.641636	2.589800
	2.642916	2.543083
	2.635876	2.531884
	2.627557	2.572521
	2.612838	2.507565
	2.595559	2.547243
	2.578600	2.509165
	2.567401	2.502126
	2.562921	2.509165
	2.559402	2.530284
	2.563561	2.551402
	2.569961	2.571241
	2.692832	2.554922
	2.585000	2.563561
	2.592679	2.581160
	2.595559	2.579240
	2.594599	2.575721
	2.588840	2.567721
	2.586280	2.635236
	2.574761	2.562282
	2.562282	2.538923
	2.552362	2.547563
	2.544043	2.490927
	2.539243	2.483247
	2.536363	2.486447
	2.537643	2.504046
	2.538923	2.502766
	2.542443	2.507885
	2.543723	2.504366
	2.547243	2.514285
	2.546603	2.513645
	2.543403	2.498606
	2.537003	2.491247
	2.531244	2.486127
	2.522604	2.484847
	2.514925	2.479088
	2.506286	2.478768
	2.501806	2.474928
	2.499566	2.478448
	2.499246	2.483247
	2.638436	2.491887
	2.511725	2.496046
	2.672674	2.501806
	2.676833	2.502446
	2.523564	2.505006
	2.522284	2.503726
	2.578920	2.504046
	2.540843	2.501806
	2.673313	2.496686
	2.522924	2.538923
	2.551722	2.493806
	2.535403	2.495726
	2.608038	2.499886
	2.538283	2.506926
	2.498926	2.512365
	2.499566	2.521005
	2.514925	2.528044
	2.518445	2.534764
	2.521644	2.536043
	2.517485	2.534764
	2.519085	2.529964
	2.518125	2.521644
	2.603559	2.515565
	2.700511	2.508205
	2.515565	2.503086
	2.520685	2.498286
	2.518445	2.495726
	2.505966	2.499566
	2.513005	2.499886
	2.515245	2.505966
	2.525164	2.509805
	2.586600	2.515885
	2.565161	2.521964
	2.622437	2.525484
	2.596519	2.528044
	2.557802	2.529644
	2.555882	2.529004
	2.550122	2.529324
	2.552362	2.529644
	2.543723	2.529324
	2.531564	2.530924
	2.678753	2.534124
	2.553002	2.538603
	2.505966	2.542763
	2.506606	2.546923
	2.501806	2.552362
	2.512045	2.555882
	2.512365	2.556522
	2.521005	2.556202
	2.553642	2.553002
	2.541163	2.548523
	2.586280	2.542763
	2.613158	2.536043
	2.553642	2.528684
	2.559082	2.521005
	2.561642	2.513965
	2.561962	2.510125
	2.573481	2.506286
	2.577320	2.504686
	2.613158	2.504046
	2.716510	2.505326
	2.569001	2.507885
	2.568361	2.509805
	2.592999	2.513325
	2.573161	2.515885
	2.573801	2.521005
	2.573481	2.523884
	2.569321	2.528364
	2.582120	2.530604
	2.546923	2.532524
	2.538603	2.534764
	2.532844	2.536363
	2.530604	2.535083
	2.528684	2.535083
	2.530284	2.532844
	2.539563	2.530284
	2.676513	2.527084
	2.525804	2.521964
	2.529644	2.515565
	2.529644	2.508845
	2.529324	2.504046
	2.528684	2.498286
	2.528684	2.493487
	2.533164	2.490927
	2.525804	2.488687
	2.671394	2.488687
	2.512685	2.490287
	2.510445	2.490607
	2.509485	2.494446
	2.511405	2.496686
	2.514285	2.497006
	2.521324	2.498286
	2.572201	2.497646
	2.554602	2.494766
	2.516525	2.490287
	2.514925	2.486447
	2.517805	2.480687
	2.518765	2.475568
	2.523564	2.469488
	2.529964	2.467248
	2.544043	2.464689
	2.516525	2.465968
	2.517805	2.470448
	2.519725	2.475568
	2.521964	2.481967
	2.525484	2.489327
	2.538283	2.497006
	2.592359	2.503726
	2.526764	2.508845
	2.527404	2.514285
	2.526444	2.518125
	2.526444	2.519725
	2.524524	2.519725
	2.527084	2.519405
	2.552042	2.518765
	2.544683	2.518765
	2.525804	2.518125
	2.518125	2.519725
	2.517165	2.521644
	2.518765	2.525484
	2.522924	2.529644
	2.530604	2.533164
	2.571561	2.536363
	2.526444	2.539563
	2.525804	2.540523
	2.529004	2.540203
	2.529004	2.538283
	2.532524	2.535723
	2.541803	2.532524
	2.543723	2.527724
	2.535403	2.523884
	2.536363	2.521005
	2.537003	2.520685
	2.535083	2.522924
	2.538603	2.526764
	2.541483	2.531244
	2.567721	2.536683
	2.536683	2.542443
	2.537003	2.545963
	2.537003	2.549162
	2.539243	2.547243
	2.543083	2.546603
	2.549482	2.542443
	2.580840	2.535083
	2.541483	2.525484
	2.544683	2.514925
	2.542763	2.506926
	2.544683	2.498926
	2.544683	2.491887
	2.550442	2.489967
	2.673633	2.489007
	2.545003	2.489647
	2.543083	2.493487
	2.543083	2.496366
	2.542443	2.498926
	2.544363	2.501486
	2.608038	2.502766
	2.643876	2.503086
	2.530604	2.502126
	2.525484	2.499886
	2.521964	2.500846
	2.520685	2.501486
	2.525164	2.505006
	2.536683	2.510765
	2.503726	2.517805
	2.563241	2.527724
	2.499566	2.537323
	2.501166	2.543723
	2.508845	2.550122
	2.527084	2.552682
	2.558442	2.551082
	2.569001	2.548203
	2.579880	2.542123
	2.527724	2.532204
	2.536043	2.521005
	2.549162	2.511405
	2.559402	2.502766
	2.581160	2.497646
	2.561962	2.494766
	2.557802	2.494446
	2.558762	2.497006
	2.582760	2.501486
	2.594919	2.505966
	2.634916	2.509805
	2.603559	2.513645
	2.554282	2.514925
	2.553962	2.514925
	2.553002	2.514925
	2.568681	2.513965
	2.548203	2.511405
	2.553642	2.510765
	2.570921	2.512685
	2.511725	2.513645
	2.505326	2.515565
	2.515565	2.516525
	2.508205	2.519725
	2.497646	2.521644
	2.503406	2.522284
	2.532844	2.521964
	2.498926	2.519725
	2.499886	2.516525
	2.511725	2.513645
	2.516845	2.510445
	2.524524	2.503726
	2.563881	2.501166
	2.537963	2.498606
	2.544683	2.497966
	2.545643	2.496686
	2.553962	2.495726
	2.553322	2.496366
	2.549482	2.496366
	2.545643	2.498606
	2.550442	2.499246
	2.553322	2.500526
	2.551402	2.502766
	2.570601	2.505966
	2.554602	2.508845
	2.555242	2.513965
	2.556202	2.517485
	2.547883	2.520045
	2.552362	2.522284
	2.537643	2.523884
	2.529644	2.523244
	2.525804	2.521005
	2.523564	2.515885
	2.521005	2.512685
	2.522604	2.507885
	2.529004	2.504366
	2.530924	2.501806
	2.537323	2.501806
	2.544683	2.502446
	2.577640	2.504366
	2.555882	2.507565
	2.551082	2.509165
	2.549802	2.511405
	2.550762	2.511085
	2.547563	2.511405
	2.541803	2.510445
	2.536043	2.509805
	2.529964	2.506926
	2.529644	2.508205
	2.527404	2.509485
	2.528364	2.511085
	2.531244	2.516205
	2.531244	2.519725
	2.532524	2.524524
	2.535723	2.527724
	2.533164	2.529964
	2.532524	2.530604
	2.532204	2.528684
	2.530924	2.524844
	2.532524	2.518765
	2.533164	2.514605
	2.534764	2.510125
	2.537643	2.505966
	2.541163	2.503726
	2.545643	2.504046
	2.549162	2.506926
	2.552682	2.506926
	2.551082	2.510765
	2.550122	2.513645
	2.550442	2.514925
	2.547563	2.516845
	2.543083	2.517485
	2.539883	2.516845
	2.534444	2.514925
	2.530284	2.514605
	2.525164	2.514605
	2.520685	2.514285
	2.517165	2.515565
	2.513645	2.516205
	2.511085	2.519085
	2.509805	2.521964
	2.511405	2.523884
	2.512045	2.523564
	2.513645	2.525164
	2.517165	2.524524
	2.521644	2.522284
	2.524524	2.518125
	2.527084	2.514285
	2.529964	2.510445
	2.533484	2.507246
	2.536363	2.505646
	2.538283	2.505326
	2.539883	2.505966
	2.541803	2.508845
	2.541803	2.511725
	2.540843	2.517165
	2.539883	2.521964
	2.539243	2.526124
	2.536363	2.529964
	2.533804	2.532204
	2.531884	2.533164
	2.529644	2.533484
	2.528364	2.531884
	2.526764	2.530284
	2.526764	2.528684
	2.528684	2.527084
	2.528364	2.524844
	2.529964	2.523564
	2.530924	2.521005
	2.532844	2.519405
	2.532524	2.517165
	2.534444	2.514925
	2.537643	2.511085
	2.540843	2.508845
	2.543403	2.506286
	2.546603	2.504686
	2.549162	2.503406
	2.552362	2.503726
	2.551402	2.504686
	2.550762	2.505966
	2.548842	2.509165
	2.547563	2.512045
	2.544363	2.516205
	2.540203	2.518765
	2.536363	2.520685
	2.534764	2.523564
	2.531884	2.526764
	2.529324	2.526764
	2.526764	2.526444
	2.525804	2.525804
	2.526764	2.523244
	2.526764	2.519085
	2.527404	2.515885
	2.528044	2.511725
	2.530924	2.507246
	2.534764	2.503726
	2.536683	2.502126
	2.539883	2.500846
	2.543403	2.501806
	2.545003	2.501806
	2.546603	2.504686
	2.547563	2.508525
	2.546923	2.510445
	2.547243	2.512365
	2.544363	2.513005
	2.540843	2.514925
	2.539563	2.514605
	2.536363	2.514605
	2.532204	2.512685
	2.528684	2.512045
	2.523244	2.510765
	2.522284	2.510125
	2.520365	2.507885
	2.521005	2.509165
	2.523884	2.509805
	2.529004	2.510445
	2.532844	2.512045
	2.541483	2.513325
	2.550122	2.513645
	2.559722	2.515245
	2.568361	2.514605
	2.572841	2.514925
	2.578920	2.513005
	2.581480	2.510125
	2.580200	2.507565
	2.577000	2.506286
	2.572841	2.504046
	2.564841	2.501166
	2.556842	2.501486
	2.547243	2.500526
	2.542123	2.501806
	2.534444	2.502446
	2.529324	2.504046
	2.525484	2.505966
	2.522924	2.507565
	2.523244	2.508205
	2.522604	2.509165
	2.524844	2.509485
	2.526764	2.508525
	2.526124	2.509805
	2.528044	2.508525
	2.528364	2.508525
	2.528684	2.507885
	2.527724	2.508525
	2.527724	2.510445
	2.526764	2.513005
	2.525484	2.513005
	2.526124	2.514605
	2.526764	2.515885
	2.528044	2.515245
	2.528684	2.514285
	2.530284	2.513645
	2.532844	2.511405
	2.534124	2.508845
	2.534444	2.506926
	2.534764	2.505326
	2.535083	2.503726
	2.533804	2.501806
	2.531564	2.502446
	2.529964	2.503086
	2.529644	2.506926
	2.527724	2.509805
	2.527404	2.513965
	2.527084	2.515565
	2.525804	2.636836
	2.524844	2.518125
	2.525484	2.519085
	2.524524	2.518125
	2.523244	2.518125
	2.521324	2.516525
	2.520045	2.515885
	2.520045	2.515245
	2.517805	2.513645
	2.517805	2.513645
	2.518125	2.513005
	2.518125	2.514285
	2.520045	2.515565
	2.522284	2.528684
	2.524844	2.517165
	2.526764	2.520045
	2.527404	2.521964
	2.526124	2.606438
	2.523564	2.526764
	2.519405	2.528364
	2.513005	2.611238
	2.508845	2.537003
	2.502126	2.528044
	2.496686	2.525164
	2.493487	2.567401
	2.492527	2.550762
	2.494126	2.518765
	2.498286	2.517165
	2.505966	2.604198
	2.516205	2.521324
	2.527724	2.515245
	2.533804	2.520365
	2.545003	2.528684
	2.553322	2.553002
	2.560362	2.537323
	2.562601	2.547883
	2.562601	2.583080
	2.560362	2.498286
	2.559722	2.598439
	2.556202	2.548523
	2.553002	2.536043
	2.552362	2.485167
	2.553002	2.496366
	2.552682	2.498286
	2.553322	2.503086
	2.554282	2.506926
	2.555562	2.522284
	2.555242	2.531564
	2.555242	2.525804
	2.552682	2.535723
	2.550442	2.540523
	2.545643	2.540523
	2.540203	2.531884
	2.534124	2.523884
	2.530284	2.525804
	2.528044	2.536683
	2.524844	2.513005
	2.524204	2.508205
	2.526124	2.510125
	2.529324	2.519085
	2.532524	2.511085
	2.538603	2.515245
	2.545323	2.536363
	2.551402	2.527724
	2.557802	2.532204
	2.560362	2.535083
	2.564841	2.601959
	2.565801	2.539883
	2.564841	2.534124
	2.565481	2.531244
	2.565161	2.530604
	2.562601	2.519085
	2.559722	2.510445
	2.557802	2.504366
	2.555882	2.505966
	2.553962	2.497966
	2.553322	2.497646
	2.552042	2.500206
	2.552362	2.513005
	2.553962	2.509485
	2.553002	2.513325
	2.553322	2.518765
	2.553002	2.543083
	2.551722	2.520685
	2.549802	2.519405
	2.547243	2.521005
	2.542123	2.544683
	2.535403	2.508845
	2.529004	2.505966
	2.523244	2.506606
	2.518765	2.500846
	2.513645	2.502446
	2.510445	2.505326
	2.508845	2.513645
	2.510445	2.517165
	2.512685	2.525164
	2.517805	2.540523
	2.523564	2.540523
	2.529964	2.538923
	2.537323	2.540843
	2.540843	2.539563
	2.545003	2.538603
	2.546923	2.525484
	2.547883	2.516525
	2.547243	2.510125
	2.546923	2.513965
	2.543723	2.492207
	2.540203	2.509485
	2.537643	2.491567
	2.535723	2.494766
	2.535083	2.501806
	2.534444	2.519405
	2.534444	2.522924
	2.535083	2.532844
	2.537003	2.540843
	2.537003	2.548203
	2.537643	2.557482
	2.537003	2.552682
	2.534764	2.551082
	2.533484	2.544683
	2.530284	2.551402
	2.526764	2.524844
	2.522924	2.514925
	2.519405	2.504686
	2.518125	2.496686
	2.517165	2.493487
	2.517485	2.492527
	2.521005	2.499246
	2.525804	2.501166
	2.529644	2.509165
	2.535723	2.516845
	2.540843	2.541803
	2.545963	2.528684
	2.549482	2.530284
	2.550442	2.527084
	2.550442	2.519725
	2.547243	2.510765
	2.542443	2.499246
	2.534764	2.496686
	2.530284	2.481327
	2.521964	2.477168
	2.515245	2.477168
	2.513005	2.619237
	2.511085	2.491887
	2.512365	2.504046
	2.516845	2.521005
	2.521324	2.531244
	2.529324	2.541163
	2.534444	2.547243
	2.537003	2.595879
	2.541483	2.543403
	2.541803	2.534124
	2.541483	2.522284
	2.534124	2.509805
	2.530924	2.499246
	2.523884	2.491887
	2.517165	2.500206
	2.511405	2.490607
	2.506286	2.497646
	2.505326	2.508205
	2.505966	2.520045
	2.511085	2.531564
	2.514605	2.540203
	2.520365	2.553642
	2.563241	2.547563
	2.526764	2.543403
	2.529644	2.536363
	2.616678	2.524844
	2.533484	2.513645
	2.524524	2.506286
	2.521644	2.503086
	2.608038	2.490927
	2.617638	2.487727
	2.514925	2.490287
	2.549162	2.492847
	2.531244	2.499566
	2.526764	2.505966
	2.602279	2.517485
	2.550442	2.516205
	2.549162	2.519405
	2.554922	2.520685
	2.567721	2.517805
	2.597159	2.514925
	2.647395	2.512045
	2.563241	2.516525
	2.559402	2.506286
	2.540523	2.503406
	2.540203	2.506926
	2.535403	2.508845
	2.590119	2.513005
	2.540203	2.519085
	2.531244	2.523884
	2.533164	2.529004
	2.544043	2.531244
	2.535403	2.592359
	2.544363	2.530284
	2.815703	2.527084
	2.551402	2.523564
	2.540843	2.517165
	2.548842	2.510765
	2.542443	2.504686
	2.540203	2.501166
	2.537643	2.496366
	2.536683	2.494126
	2.537643	2.500846
	2.541803	2.496046
	2.632676	2.498606
	2.544043	2.501806
	2.544043	2.504366
	2.599079	2.504686
	2.545003	2.508205
	2.540203	2.509165
	2.554282	2.508525
	2.544683	2.507246
	2.531884	2.511725
	2.529004	2.503086
	2.551082	2.501806
	2.523244	2.501166
	2.521005	2.498926
	2.547563	2.497646
	2.521005	2.497646
	2.520685	2.622437
	2.582760	2.499246
	2.524524	2.501166
	2.525484	2.509485
	2.526444	2.507246
	2.528364	2.508525
	2.526444	2.512365
	2.525804	2.512365
	2.532204	2.513965
	2.521005	2.513645
	2.517485	2.514285
	2.521324	2.513325
	2.515565	2.514285
	2.514925	2.582120
	2.522284	2.513645
	2.515245	2.515565
	2.516845	2.522284
	2.532844	2.516205
	2.519085	2.516845
	2.523244	2.519085
	2.523884	2.517485
	2.534124	2.515885
	2.529964	2.515245
	2.529644	2.511085
	2.533164	2.506286
	2.530604	2.501486
	2.530284	2.496366
	2.532844	2.493167
	2.529004	2.491887
	2.528684	2.505006
	2.527724	2.491887
	2.523884	2.498926
	2.523884	2.502766
	2.526444	2.505006
	2.525484	2.512365
	2.526764	2.518445
	2.530284	2.522604
	2.614758	2.526124
	2.532844	2.527724
	2.542763	2.528044
	2.541803	2.526444
	2.533484	2.525484
	2.533804	2.523244
	2.532844	2.522604
	2.528684	2.524844
	2.531244	2.603239
	2.531564	2.529964
	2.532844	2.535403
	2.536683	2.556202
	2.538283	2.542763
	2.541163	2.545003
	2.542763	2.551402
	2.544363	2.543083
	2.542123	2.539243
	2.539883	2.537003
	2.537323	2.525484
	2.533484	2.519725
	2.530604	2.518445
	2.527404	2.512685
	2.528684	2.513005
	2.529324	2.515245
	2.530284	2.517165
	2.585000	2.519405
	2.539563	2.521005
	2.544363	2.519725
	2.578280	2.519085
	2.547563	2.517165
	2.549162	2.512365
	2.553322	2.509805
	2.546923	2.507565
	2.544683	2.504686
	2.546283	2.506606
	2.542763	2.507885
	2.541163	2.513005
	2.541163	2.517805
	2.540523	2.521005
	2.539243	2.523564
	2.540843	2.523564
	2.535723	2.522604
	2.534124	2.532844
	2.529644	2.512365
	2.525804	2.509485
	2.520365	2.504366
	2.516845	2.500846
	2.513325	2.500206
	2.511085	2.501806
	2.513005	2.505006
	2.512045	2.509805
	2.515885	2.512365
	2.520045	2.518765
	2.521964	2.521644
	2.524524	2.525164
	2.528044	2.522924
	2.527404	2.520365
	2.526124	2.615718
	2.526124	2.514605
	2.523884	2.513005
	2.521005	2.578920
	2.521005	2.515245
	2.523244	2.518765
	2.520685	2.521324
	2.522604	2.526124
	2.528364	2.528044
	2.532204	2.529004
	2.538603	2.529004
	2.542443	2.526124
	2.543723	2.521964
	2.550762	2.517805
	2.548523	2.513325
	2.548203	2.508525
	2.550442	2.506286
	2.547563	2.504046
	2.546283	2.504046
	2.548842	2.505966
	2.542763	2.508525
	2.541483	2.510125
	2.558442	2.511405
	2.540203	2.512365
	2.540203	2.511085
	2.553002	2.510445
	2.540843	2.507885
	2.541483	2.505006
	2.542443	2.504366
	2.545003	2.505966
	2.546283	2.503086
	2.547563	2.502766
	2.549162	2.505326
	2.549482	2.504366
	2.548203	2.506286
	2.545643	2.510445
	2.543723	2.508845
	2.541803	2.509805
	2.537963	2.517165
	2.535723	2.512685
	2.533164	2.514285
	2.532844	2.635236
	2.533484	2.518765
	2.531564	2.521964
	2.531884	2.524204
	2.532204	2.528044
	2.529964	2.530924
	2.527084	2.531884
	2.532844	2.532204
	2.522604	2.532204
	2.519085	2.529964
	2.586280	2.527084
	2.514285	2.527724
	2.513645	2.522604
	2.512685	2.521005
	2.514925	2.522284
	2.516205	2.518125
	2.518765	2.517485
	2.520685	2.573481
	2.522924	2.519085
	2.522924	2.521324
	2.522604	2.523244
	2.526444	2.522284
	2.521644	2.522284
	2.521324	2.518765
	2.564201	2.515885
	2.518765	2.513325
	2.519085	2.508845
	2.519085	2.505326
	2.520365	2.523564
	2.521324	2.503726
	2.522284	2.504686
	2.524204	2.518765
	2.529324	2.510125
	2.525804	2.513005
	2.526444	2.515565
	2.532844	2.518445
	2.527724	2.518445
	2.527404	2.530604
	2.530604	2.517165
	2.532204	2.520685
	2.535403	2.514925
	2.537003	2.512365
	2.541163	2.512685
	2.546603	2.511085
	2.546923	2.511405
	2.548203	2.524524
	2.552362	2.512365
	2.552042	2.511725
	2.552042	2.625637
	2.583400	2.510765
	2.550762	2.521324
	2.549482	2.515565
	2.547243	2.505646
	2.544043	2.502446
	2.544043	2.497966
	2.539883	2.495086
	2.538283	2.596519
	2.536043	2.565481
	2.535083	2.484527
	2.532844	2.491887
	2.625957	2.587240
	2.531884	2.484207
	2.530284	2.491247
	2.529964	2.484527
	2.529964	2.489327
	2.529644	2.486767
	2.527084	2.492847
	2.525484	2.516525
	2.535723	2.483567
	2.525484	2.483247
	2.524524	2.525484
	2.525804	2.558122
	2.524844	2.480367
	2.524524	2.503726
	2.524204	2.547883
	2.523564	2.487087
	2.529964	2.535083
	2.522604	2.492207
	2.526444	2.580520
	2.524204	2.565481
	2.526124	2.503726
	2.529004	2.511725
	2.531244	2.507885
	2.532844	2.513325
	2.535403	2.517485
	2.535723	2.507246
	2.538603	2.529964
	2.536043	2.509165
	2.536363	2.511085
	2.536683	2.511085
	2.534444	2.510125
	2.532204	2.508845
	2.556202	2.510765
	2.528684	2.508205
	2.527404	2.509485
	2.526444	2.535403
	2.526124	2.508205
	2.527404	2.514285
	2.527084	2.509485
	2.526764	2.512685
	2.530604	2.514605
	2.527724	2.509805
	2.527724	2.510125
	2.527724	2.507885
	2.527084	2.505646
	2.527084	2.506606
	2.524524	2.500526
	2.523244	2.501486
	2.522604	2.499566
	2.523244	2.496686
	2.525484	2.502446
	2.527404	2.495726
	2.531884	2.498606
	2.541163	2.498926
	2.538923	2.499886
	2.541803	2.503406
	2.545963	2.504046
	2.548203	2.508525
	2.549162	2.507565
	2.546283	2.508525
	2.544683	2.510125
	2.655715	2.511405
	2.535403	2.509485
	2.531884	2.509805
	2.526444	2.508525
	2.521324	2.508845
	2.529964	2.512365
	2.513965	2.513005
	2.512045	2.517805
	2.509485	2.523244
	2.507885	2.530284
	2.515565	2.537643
	2.507565	2.540843
	2.509165	2.545643
	2.508525	2.545643
	2.509165	2.544683
	2.511085	2.541803
	2.509165	2.535723
	2.508845	2.531884
	2.508845	2.527724
	2.509165	2.523244
	2.507885	2.521324
	2.506286	2.519405
	2.505006	2.518445
	2.504686	2.517805
	2.505966	2.518125
	2.506926	2.518445
	2.509165	2.521005
	2.509805	2.522604
	2.511085	2.525164
	2.512365	2.529004
	2.515245	2.530924
	2.513965	2.531884
	2.514605	2.535083
	2.583400	2.535083
	2.516845	2.536363
	2.518765	2.536363
	2.521644	2.537643
	2.522924	2.539563
	2.527084	2.538283
	2.531564	2.537963
	2.538283	2.538923
	2.541163	2.537643
	2.544363	2.535723
	2.548203	2.532844
	2.552042	2.530284
	2.555562	2.525804
	2.558442	2.521005
	2.558762	2.514605
	2.561962	2.507565
	2.564521	2.501486
	2.568041	2.495086
	2.571241	2.489967
	2.568041	2.486447
	2.567081	2.485487
	2.566121	2.484527
	2.565161	2.485807
	2.561642	2.488687
	2.559082	2.490607
	2.555242	2.495086
	2.550442	2.499566
	2.546603	2.505966
	2.539563	2.515245
	2.536363	2.525484
	2.529644	2.538283
	2.524204	2.550762
	2.522604	2.561002
	2.514605	2.570601
	2.511725	2.577640
	2.508525	2.581800
	2.507246	2.581800
	2.529324	2.579240
	2.506926	2.574761
	2.507885	2.566761
	2.509805	2.561322
	2.513645	2.554922
	2.517165	2.548203
	2.519405	2.543083
	2.524844	2.539563
	2.527084	2.537323
	2.532204	2.534764
	2.538603	2.534764
	2.539243	2.531244
	2.549162	2.526764
	2.544043	2.522284
	2.545323	2.514925
	2.545003	2.508525
	2.544043	2.501486
	2.649635	2.493806
	2.538923	2.487407
	2.534764	2.482287
	2.529644	2.478768
	2.527404	2.479728
	2.535723	2.482287
	2.518445	2.486447
	2.519085	2.489647
	2.513965	2.496686
	2.513005	2.501166
	2.512045	2.504046
	2.511405	2.505646
	2.553322	2.506926
	2.510125	2.506286
	2.512685	2.503726
	2.511725	2.500526
	2.512365	2.497966
	2.512685	2.496046
	2.514605	2.493806
	2.522284	2.493487
	2.516845	2.495726
	2.519725	2.498926
	2.521964	2.502126
	2.524204	2.506286
	2.529964	2.512045
	2.528044	2.515885
	2.533804	2.517805
	2.531564	2.520045
	2.531244	2.519725
	2.529324	2.518765
	2.528044	2.517165
	2.646115	2.516525
	2.520685	2.515565
	2.545963	2.516205
	2.513325	2.516525
	2.510125	2.518445
	2.506926	2.521324
	2.507565	2.524524
	2.572841	2.527724
	2.509165	2.529964
	2.517485	2.533484
	2.515245	2.534124
	2.521324	2.534764
	2.525484	2.533484
	2.528684	2.532844
	2.543403	2.529644
	2.535083	2.526444
	2.543083	2.523564
	2.536683	2.520685
	2.536683	2.518125
	2.536043	2.515885
	2.534444	2.516845
	2.548523	2.517485
	2.530604	2.518765
	2.537963	2.520045
	2.528364	2.522604
	2.546283	2.525164
	2.527724	2.528684
	2.526444	2.531244
	2.620837	2.578920
	2.597799	2.534764
	2.531244	2.536043
	2.620517	2.536363
	2.524204	2.537643
	2.519405	2.537963
	2.516525	2.536363
	2.524844	2.536363
	2.512365	2.691872
	2.520045	2.532204
	2.510125	2.635556
	2.511405	2.526444
	2.510445	2.535723
	2.517165	2.521644
	2.514285	2.531884
	2.527724	2.521644
	2.599399	2.527404
	2.527404	2.583400
	2.538923	2.513965
	2.618597	2.524204
	2.539563	2.511405
	2.556522	2.552042
	2.550442	2.640356
	2.552362	2.508525
	2.584040	2.516845
	2.547243	2.507885
	2.549802	2.530924
	2.545643	2.523244
	2.549802	2.638436
	2.541163	2.505646
	2.621797	2.509805
	2.539243	2.624677
	2.537963	2.517805
	2.544683	2.525484
	2.539563	2.524524
	2.545003	2.529324
	2.538923	2.519085
	2.536363	2.531564
	2.531884	2.533164
	2.545003	2.508525
	2.532204	2.609958
	2.538603	2.501806
	2.531244	2.519725
	2.536363	2.500846
	2.542443	2.504686
	2.535723	2.502446
	2.539883	2.505646
	2.529644	2.511725
	2.534124	2.506286
	2.525164	2.508205
	2.523884	2.506286
	2.521324	2.508525
	2.521324	2.502126
	2.522924	2.500206
	2.520685	2.494766
	2.522604	2.491567
	2.525164	2.488047
	2.524844	2.485167
	2.523564	2.484527
	2.528044	2.481647
	2.524204	2.510445
	2.525804	2.482607
	2.525164	2.485807
	2.527084	2.481967
	2.530604	2.484847
	2.535083	2.482927
	2.541803	2.484207
	2.544683	2.485487
	2.548203	2.489327
	2.555242	2.493487
	2.562921	2.497006
	2.564521	2.613158
	2.569321	2.507565
	2.568681	2.521005
	2.570921	2.516205
	2.568041	2.534764
	2.565481	2.524204
	2.562601	2.527724
	2.561002	2.529004
	2.559722	2.529324
	2.557162	2.529324
	2.555242	2.527724
	2.552682	2.525804
	2.553642	2.525164
	2.551402	2.610598
	2.552042	2.520365
	2.551402	2.522284
	2.552362	2.517165
	2.551082	2.518445
	2.552042	2.516525
	2.551722	2.525164
	2.551402	2.522604
	2.550122	2.529324
	2.550442	2.535723
	2.548842	2.543723
	2.545323	2.547883
	2.545003	2.550442
	2.541163	2.553002
	2.538603	2.553322
	2.534764	2.590119
	2.530924	2.545003
	2.525804	2.543083
	2.520045	2.531564
	2.516525	2.528684
	2.513325	2.525804
	2.510125	2.526764
	2.508205	2.526124
	2.507565	2.534124
	2.508205	2.539883
	2.507885	2.549482
	2.508845	2.558442
	2.513325	2.565481
	2.515565	2.571881
	2.518765	2.575401
	2.520365	2.574761
	2.523884	2.572201
	2.525804	2.634276
	2.527404	2.559402
	2.527084	2.556842
	2.529004	2.543083
	2.529644	2.539883
	2.532204	2.533164
	2.533484	2.530284
	2.535083	2.525484
	2.538283	2.524204
	2.540523	2.522604
	2.543083	2.522604
	2.545643	2.521964
	2.546283	2.521324
	2.546923	2.521324
	2.546603	2.523244
	2.546603	2.520365
	2.544683	2.527724
	2.543403	2.520365
	2.543403	2.522284
	2.541483	2.524524
	2.538283	2.528364
	2.537963	2.538603
	2.537643	2.536043
	2.537003	2.547243
	2.536043	2.542443
	2.533804	2.542763
	2.532844	2.541803
	2.532844	2.540843
	2.533164	2.537003
	2.532524	2.533164
	2.534444	2.529644
	2.534124	2.526444
	2.536683	2.522284
	2.537003	2.518765
	2.544683	2.514925
	2.543723	2.511725
	2.544683	2.508205
	2.547563	2.505966
	2.575401	2.502126
	2.550442	2.500526
	2.550442	2.497966
	2.564841	2.497326
	2.559402	2.497646
	2.645475	2.496366
	2.551082	2.498926
	2.546923	2.501806
	2.558122	2.504366
	2.590439	2.506926
	2.555242	2.509805
	2.561642	2.512365
	2.558762	2.712351
	2.561002	2.513005
	2.557162	2.537003
	2.562282	2.512365
	2.566121	2.515885
	2.562601	2.509485
	2.554922	2.518445
	2.557162	2.507885
	2.553642	2.511085
	2.550442	2.506286
	2.553002	2.511085
	2.545643	2.507565
	2.546603	2.506606
	2.548523	2.505326
	2.542763	2.504046
	2.541803	2.501486
	2.544043	2.499246
	2.539563	2.493806
	2.538923	2.491887
	2.542763	2.487407
	2.538923	2.485807
	2.536683	2.485167
	2.542443	2.483567
	2.536043	2.482287
	2.535723	2.484847
	2.538923	2.487407
	2.539883	2.491247
	2.542763	2.493806
	2.545963	2.498286
	2.547243	2.502766
	2.547243	2.505966
	2.546603	2.509805
	2.545323	2.514285
	2.543723	2.517485
	2.538923	2.520045
	2.533804	2.522924
	2.530924	2.524844
	2.524204	2.525484
	2.519085	2.528364
	2.511405	2.529004
	2.506286	2.530604
	2.502126	2.530924
	2.497006	2.533164
	2.491887	2.533164
	2.489647	2.534764
	2.489327	2.534764
	2.487727	2.535723
	2.489007	2.535403
	2.489327	2.536043
	2.491887	2.535403
	2.492207	2.537643
	2.495406	2.536043
	2.498606	2.536683
	2.502126	2.534124
	2.503726	2.539243
	2.504366	2.530604
	2.505006	2.540523
	2.506926	2.527724
	2.508205	2.546923
	2.509485	2.526764
	2.513645	2.620837
	2.517485	2.527404
	2.522604	2.527404
	2.530284	2.529324
	2.536043	2.531244
	2.540203	2.532204
	2.549162	2.532204
	2.564521	2.530604
	2.562601	2.529004
	2.574121	2.526444
	2.569961	2.521644
	2.575721	2.515565
	2.574441	2.512685
	2.578920	2.507885
	2.575081	2.503086
	2.578600	2.500526
	2.573161	2.497646
	2.606438	2.497006
	2.569321	2.495726
	2.689312	2.496686
	2.562282	2.497006
	2.604518	2.497006
	2.555882	2.498286
	2.551402	2.498286
	2.549162	2.498606
	2.547883	2.499566
	2.545643	2.501166
	2.545643	2.503726
	2.547243	2.507565
	2.548203	2.512365
	2.549482	2.514925
	2.552042	2.520685
	2.553322	2.523884
	2.554602	2.539563
	2.560362	2.531884
	2.551722	2.557482
	2.550442	2.537643
	2.545323	2.538603
	2.540203	2.538603
	2.536043	2.540203
	2.532524	2.540523
	2.527084	2.541163
	2.521644	2.541483
	2.518765	2.543403
	2.529324	2.544363
	2.515885	2.546603
	2.532524	2.548203
	2.517485	2.549162
	2.520365	2.548842
	2.523884	2.548203
	2.525484	2.545643
	2.529964	2.542443
	2.532844	2.538283
	2.538923	2.532844
	2.537643	2.528364
	2.540523	2.522924
	2.540523	2.526764
	2.540203	2.513005
	2.539883	2.714910
	2.540203	2.504686
	2.538603	2.501486
	2.536043	2.498286
	2.536043	2.496046
	2.535403	2.492207
	2.533484	2.488687
	2.543083	2.484847
	2.530284	2.481007
	2.529324	2.478448
	2.528364	2.476528
	2.523884	2.473648
	2.529004	2.472688
	2.521644	2.472048
	2.519405	2.471408
	2.518125	2.478768
	2.515245	2.472368
	2.512685	2.472048
	2.509805	2.471408
	2.508845	2.472688
	2.506926	2.473008
	2.505646	2.474288
	2.507565	2.475248
	2.504366	2.476528
	2.510125	2.477808
	2.502766	2.479408
	2.503726	2.481647
	2.503406	2.484847
	2.504366	2.487727
	2.505326	2.489327
	2.505646	2.514285
	2.505646	2.490927
	2.506606	2.492527
	2.507246	2.491887
	2.506926	2.490607
	2.508525	2.489647
	2.508205	2.487087
	2.520685	2.485487
	2.507565	2.483567
	2.508845	2.482607
	2.510445	2.479408
	2.508525	2.482287
	2.508525	2.479408
	2.508845	2.637476
	2.509485	2.477488
	2.508845	2.549162
	2.510445	2.478448
	2.510125	2.478768
	2.512685	2.478128
	2.509485	2.477808
	2.508845	2.479088
	2.508205	2.479728
	2.507885	2.477808
	2.507565	2.484207
	2.506606	2.521324
	2.503726	2.490607
	2.503086	2.496046
	2.502446	2.501166
	2.501166	2.507246
	2.518765	2.513645
	2.497646	2.519725
	2.497006	2.526764
	2.497966	2.532204
	2.497326	2.539563
	2.497326	2.544683
	2.499246	2.548523
	2.501166	2.554282
	2.501806	2.558762
	2.504686	2.562282
	2.507565	2.566121
	2.509805	2.568361
	2.510125	2.571881
	2.512045	2.573161
	2.513005	2.573481
	2.513965	2.581160
	2.513965	2.574121
	2.514605	2.575081
	2.513965	2.574441
	2.513645	2.573481
	2.537963	2.570281
	2.515885	2.569321
	2.516525	2.566761
	2.515565	2.565481
	2.520045	2.562601
	2.522284	2.559402
	2.526124	2.557162
	2.528044	2.553642
	2.529324	2.550762
	2.536683	2.547563
	2.534764	2.544043
	2.536683	2.541803
	2.539243	2.537963
	2.541163	2.537003
	2.545323	2.534124
	2.547563	2.531244
	2.548203	2.529324
	2.550762	2.525804
	2.559402	2.523244
	2.553962	2.521324
	2.553322	2.518445
	2.553002	2.514605
	2.552042	2.513965
	2.550122	2.508525
	2.549162	2.504046
	2.547243	2.499566
	2.547243	2.492847
	2.600039	2.491567
	2.543723	2.488367
	2.543083	2.485487
	2.543083	2.483247
	2.544363	2.495086
	2.544363	2.479408
	2.544683	2.479088
	2.544683	2.479088
	2.545003	2.478448
	2.544363	2.478128
	2.544363	2.478128
	2.545643	2.481007
	2.544363	2.478448
	2.545643	2.478768
	2.546283	2.477808
	2.545643	2.478768
	2.546603	2.479088
	2.547883	2.480367
	2.548523	2.484527
	2.547883	2.485807
	2.547563	2.665954
	2.546923	2.491247
	2.545643	2.495086
	2.681953	2.498286
	2.543403	2.500206
	2.542763	2.503086
	2.540203	2.504366
	2.538283	2.567081
	2.536043	2.509165
	2.534444	2.508525
	2.556842	2.510765
	2.530604	2.513325
	2.526764	2.516845
	2.526124	2.519405
	2.522924	2.669474
	2.522284	2.525484
	2.520045	2.528684
	2.632996	2.532204
	2.518765	2.534444
	2.516205	2.536363
	2.517165	2.535083
	2.518765	2.536043
	2.518125	2.535083
	2.516845	2.535083
	2.516845	2.535083
	2.515245	2.533804
	2.514925	2.533164
	2.513005	2.532524
	2.512685	2.532844
	2.510765	2.532204
	2.509485	2.532204
	2.509485	2.534124
	2.511725	2.533484
	2.512365	2.546603
	2.513645	2.531884
	2.517805	2.531244
	2.526124	2.530924
	2.521964	2.530924
	2.522604	2.529324
	2.523564	2.529644
	2.522604	2.527404
	2.522924	2.527404
	2.519085	2.525164
	2.517805	2.526124
	2.516205	2.525484
	2.515885	2.536043
	2.515565	2.525804
	2.514925	2.524844
	2.527084	2.525484
	2.520045	2.524844
	2.523244	2.527724
	2.526124	2.527084
	2.526764	2.527404
	2.528684	2.526764
	2.528044	2.526124
	2.525804	2.523884
	2.522604	2.521644
	2.518445	2.524204
	2.516845	2.515885
	2.513645	2.509805
	2.617957	2.505966
	2.511405	2.502126
	2.513005	2.498926
	2.515565	2.494126
	2.517485	2.491247
	2.528364	2.489967
	2.529644	2.488047
	2.534124	2.489007
	2.537963	2.488687
	2.540843	2.490607
	2.543403	2.491887
	2.541803	2.494446
	2.543083	2.493806
	2.542443	2.495086
	2.540203	2.500206
	2.538603	2.496366
	2.535403	2.497966
	2.533804	2.501166
	2.532524	2.504046
	2.529324	2.512365
	2.529324	2.513645
	2.526124	2.518445
	2.566761	2.524844
	2.522284	2.530284
	2.519725	2.535083
	2.515565	2.538923
	2.512365	2.543723
	2.529324	2.546283
	2.506926	2.547243
	2.502446	2.547563
	2.501166	2.547563
	2.499566	2.546603
	2.503406	2.545963
	2.498286	2.544363
	2.499886	2.544043
	2.501166	2.542763
	2.502766	2.542443
	2.505326	2.541163
	2.504366	2.538923
	2.506286	2.537963
	2.508525	2.535083
	2.510125	2.677153
	2.514605	2.529324
	2.512045	2.526444
	2.511405	2.523564
	2.512685	2.519725
	2.513645	2.516845
	2.518765	2.513005
	2.515885	2.510445
	2.517165	2.508205
	2.517485	2.505326
	2.517485	2.502446
	2.525804	2.501166
	2.519725	2.499246
	2.520045	2.498606
	2.520365	2.496366
	2.520685	2.494446
	2.591079	2.493167
	2.519085	2.490927
	2.518765	2.494766
	2.518445	2.490607
	2.517805	2.494126
	2.552042	2.490287
	2.516205	2.491887
	2.514605	2.492847
	2.513645	2.490927
	2.512685	2.490607
	2.512365	2.490607
	2.512045	2.488367
	2.512365	2.655075
	2.513325	2.484527
	2.513005	2.483567
	2.514285	2.483567
	2.516525	2.482287
	2.518125	2.481647
	2.566121	2.481007
	2.522604	2.481647
	2.525164	2.482287
	2.527724	2.481647
	2.529644	2.482287
	2.532204	2.482607
	2.532524	2.482607
	2.532844	2.497966
	2.533484	2.481967
	2.529644	2.481967
	2.528684	2.482287
	2.526444	2.482287
	2.525164	2.524844
	2.530604	2.485807
	2.518445	2.488687
	2.517805	2.492847
	2.516205	2.496686
	2.514285	2.501486
	2.514925	2.508205
	2.514285	2.511725
	2.513645	2.527724
	2.513645	2.519405
	2.513005	2.521324
	2.512365	2.524204
	2.511405	2.523884
	2.511085	2.522924
	2.693792	2.522604
	2.511725	2.521005
	2.513005	2.520045
	2.515565	2.516525
	2.517485	2.513325
	2.520045	2.511405
	2.523244	2.507885
	2.528044	2.505966
	2.535403	2.503726
	2.533484	2.500206
	2.534124	2.501806
	2.535723	2.497326
	2.533804	2.496686
	2.534124	2.495086
	2.531244	2.493806
	2.530284	2.504046
	2.532844	2.495726
	2.525804	2.498286
	2.525484	2.503406
	2.523884	2.508525
	2.523564	2.514925
	2.523884	2.521644
	2.522284	2.529644
	2.521644	2.678753
	2.523564	2.543083
	2.520365	2.547563
	2.518125	2.552042
	2.517485	2.551082
	2.516845	2.550442
	2.517165	2.547563
	2.518445	2.543403
	2.519405	2.653475
	2.533484	2.537643
	2.524844	2.537963
	2.528364	2.540523
	2.533164	2.539883
	2.536043	2.544043
	2.540523	2.550762
	2.542763	2.556842
	2.546923	2.564841
	2.558122	2.571241
	2.549482	2.575721
	2.549482	2.599079
	2.552362	2.581480
	2.547883	2.578600
	2.546923	2.575721
	2.545643	2.569961
	2.544683	2.562282
	2.543083	2.556202
	2.542123	2.549482
	2.541163	2.540843
	2.716190	2.538603
	2.546603	2.529964
	2.549802	2.525804
	2.554282	2.529324
	2.556522	2.580200
	2.561002	2.554602
	2.567081	2.516845
	2.569641	2.632036
	2.572201	2.569641
	2.574761	2.490287
	2.573801	2.536363
	2.587880	2.512685
	2.569001	2.488687
	2.565161	2.513965
	2.563241	2.511405
	2.557482	2.501166
	2.552362	2.517485
	2.549162	2.515245
	2.542443	2.510125
	2.539883	2.531564
	2.534764	2.522604
	2.530284	2.543083
	2.529644	2.525164
	2.529644	2.520685
	2.530924	2.526124
	2.579560	2.520685
	2.537323	2.514605
	2.544043	2.525484
	2.560682	2.513325
	2.555562	2.510765
	2.564201	2.539243
	2.573801	2.510445
	2.579880	2.518445
	2.585320	2.511725
	2.590439	2.502766
	2.595879	2.502126
	2.599399	2.499566
	2.603239	2.492527
	2.604518	2.494766
	2.608358	2.493167
	2.611558	2.489327
	2.614118	2.492527
	2.619877	2.494766
	2.619237	2.497006
	2.620197	2.503406
	2.623397	2.507885
	2.620517	2.511405
	2.618597	2.517165
	2.617318	2.520685
	2.608358	2.523564
	2.599079	2.532524
	2.589480	2.528364
	2.578280	2.531244
	2.569001	2.535403
	2.557162	2.536683
	2.545643	2.542763
	2.538283	2.565481
	2.530284	2.551722
	2.526764	2.560042
	2.521964	2.569641
	2.517805	2.569961
	2.516525	2.575721
	2.514605	2.654755
	2.511725	2.577320
	2.510765	2.576360
	2.506286	2.570601
	2.504046	2.565481
	2.501166	2.557162
	2.499246	2.549482
	2.496046	2.541163
	2.495406	2.534124
	2.496686	2.527084
	2.495406	2.520685
	2.494766	2.517805
	2.548523	2.513325
	2.500206	2.511085
	2.503726	2.509805
	2.520685	2.507565
	2.505326	2.507885
	2.509165	2.505646
	2.521964	2.504366
	2.515245	2.503726
	2.518445	2.503086
	2.526124	2.501486
	2.525164	2.502126
	2.529004	2.504046
	2.537963	2.505966
	2.536683	2.506926
	2.537643	2.510445
	2.541483	2.512365
	2.539563	2.512045
	2.539243	2.513325
	2.538923	2.513325
	2.534124	2.512365
	2.530924	2.510765
	2.530284	2.506926
	2.524524	2.504366
	2.522604	2.501166
	2.522604	2.497966
	2.519085	2.497966
	2.518125	2.496686
	2.520685	2.500206
	2.519405	2.497966
	2.521644	2.500206
	2.525164	2.503726
	2.526124	2.506606
	2.528044	2.508205
	2.535723	2.514285
	2.530604	2.510765
	2.532204	2.510445
	2.540523	2.510765
	2.534124	2.509485
	2.532844	2.507565
	2.536363	2.509165
	2.531884	2.504686
	2.530924	2.503406
	2.548842	2.505646
	2.530924	2.503726
	2.533164	2.503086
	2.542763	2.504366
	2.537643	2.500846
	2.540523	2.499246
	2.585320	2.496686
	2.545323	2.492527
	2.550442	2.489327
	2.553322	2.484847
	2.553962	2.480687
	2.555562	2.474928
	2.558442	2.471728
	2.557482	2.470768
	2.557802	2.470768
	2.559402	2.472688
	2.560042	2.475568
	2.560362	2.478448
	2.561642	2.483567
	2.560042	2.484207
	2.560362	2.493487
	2.559402	2.495086
	2.559722	2.504366
	2.557482	2.497326
	2.553322	2.498606
	2.549802	2.498606
	2.547243	2.496046
	2.543723	2.494766
	2.543403	2.495086
	2.539243	2.493167
	2.538923	2.492847
	2.542123	2.492527
	2.540523	2.491887
	2.545963	2.491887
	2.744028	2.492527
	2.551082	2.491247
	2.553322	2.490287
	2.555242	2.490287
	2.556522	2.490607
	2.555242	2.493487
	2.553002	2.492207
	2.550442	2.495406
	2.544683	2.497966
	2.537323	2.501806
	2.530284	2.507246
	2.523884	2.511085
	2.519405	2.517485
	2.532204	2.521644
	2.511725	2.526764
	2.508205	2.530924
	2.506926	2.534764
	2.506286	2.539883
	2.505966	2.541483
	2.505006	2.543723
	2.504366	2.547243
	2.503726	2.549802
	2.503406	2.553002
	2.502446	2.556842
	2.502446	2.559722
	2.496366	2.561962
	2.495086	2.563881
	2.492847	2.564841
	2.502446	2.565801
	2.496046	2.565161
	2.513965	2.565481
	2.485167	2.566441
	2.545003	2.565801
	2.505966	2.567401
	2.481967	2.567081
	2.574761	2.567401
	2.527724	2.566441
	2.497006	2.565161
	2.569321	2.563241
	2.502126	2.558762
	2.500526	2.555242
	2.519725	2.547883
	2.520045	2.542443
	2.509805	2.535723
	2.499886	2.527724
	2.513325	2.521964
	2.513005	2.518125
	2.505966	2.517805
	2.518445	2.516205
	2.523884	2.517165
	2.508845	2.519725
	2.514285	2.522604
	2.516205	2.525484
	2.510125	2.531564
	2.505326	2.535083
	2.515565	2.537003
	2.505966	2.537643
	2.501806	2.538923
	2.507246	2.536683
	2.507565	2.537003
	2.505646	2.534124
	2.516525	2.531564
	2.512685	2.529324
	2.518125	2.528044
	2.522284	2.526124
	2.534444	2.525164
	2.543083	2.525804
	2.544043	2.524844
	2.554602	2.523244
	2.561322	2.522284
	2.565801	2.519405
	2.565161	2.516205
	2.572201	2.511085
	2.619877	2.507246
	2.568361	2.503086
	2.567081	2.499566
	2.564201	2.496686
	2.558442	2.496366
	2.552042	2.495406
	2.547563	2.495406
	2.552682	2.497006
	2.537963	2.499886
	2.536363	2.503086
	2.531244	2.506926
	2.529324	2.511405
	2.527404	2.512365
	2.529324	2.513965
	2.593319	2.514605
	2.529004	2.513645
	2.529324	2.511085
	2.531884	2.506606
	2.533804	2.501806
	2.541803	2.496366
	2.540523	2.492847
	2.551722	2.486447
	2.547243	2.483567
	2.549482	2.481327
	2.551082	2.479088
	2.552042	2.479088
	2.575401	2.480047
	2.552682	2.481327
	2.569001	2.480687
	2.547883	2.482287
	2.546283	2.481967
	2.543403	2.481007
	2.543083	2.479728
	2.539243	2.477168
	2.538923	2.474928
	2.557482	2.473008
	2.539883	2.470448
	2.540203	2.467888
	2.540523	2.466288
	2.542443	2.464369
	2.543403	2.529004
	2.545003	2.463729
	2.544683	2.463409
	2.543723	2.465009
	2.544043	2.464689
	2.542123	2.465329
	2.542763	2.465009
	2.536363	2.465009
	2.531564	2.465649
	2.527404	2.465329
	2.521005	2.465329
	2.514285	2.465649
	2.510125	2.466928
	2.505006	2.468848
	2.499566	2.470768
	2.497646	2.473328
	2.496046	2.477808
	2.497006	2.481647
	2.497326	2.487407
	2.501486	2.493487
	2.506286	2.497966
	2.522924	2.501806
	2.516525	2.506286
	2.521644	2.509165
	2.527404	2.511725
	2.532204	2.513325
	2.536363	2.513965
	2.538283	2.515245
	2.540843	2.515565
	2.541483	2.517805
	2.539883	2.519725
	2.538603	2.520685
	2.547883	2.522604
	2.535403	2.574441
	2.532524	2.529964
	2.530604	2.534124
	2.533804	2.537963
	2.527084	2.543083
	2.525164	2.545963
	2.523564	2.551722
	2.522284	2.555242
	2.519405	2.560362
	2.518445	2.562921
	2.519085	2.564841
	2.516845	2.566761
	2.515565	2.567081
	2.515565	2.567081
	2.516205	2.564521
	2.514285	2.562921
	2.514605	2.561322
	2.515245	2.558762
	2.520045	2.556842
	2.520685	2.556202
	2.523884	2.552682
	2.526764	2.550442
	2.533164	2.548523
	2.549162	2.546923
	2.537323	2.544363
	2.540523	2.540843
	2.546923	2.538923
	2.545963	2.535403
	2.549162	2.532524
	2.550442	2.529004
	2.554282	2.524844
	2.553962	2.522924
	2.557162	2.520365
	2.559082	2.518125
	2.563561	2.516845
	2.565481	2.515565
	2.569641	2.515245
	2.575081	2.515565
	2.576680	2.515565
	2.579880	2.514605
	2.582440	2.514285
	2.585000	2.513325
	2.585320	2.510445
	2.585640	2.507565
	2.584680	2.503726
	2.582760	2.499886
	2.580200	2.495406
	2.577960	2.493487
	2.575721	2.491247
	2.575081	2.489007
	2.574441	2.488687
	2.573161	2.489327
	2.572521	2.492527
	2.573161	2.495726
	2.571241	2.500526
	2.569961	2.505006
	2.568361	2.508205
	2.563881	2.511725
	2.561642	2.629477
	2.555242	2.519085
	2.548523	2.522284
	2.540843	2.526764
	2.532524	2.530924
	2.526444	2.535403
	2.517485	2.541803
	2.509165	2.546283
	2.501486	2.552042
	2.495726	2.557482
	2.491247	2.562601
	2.486767	2.566441
	2.483247	2.569961
	2.480687	2.571561
	2.476848	2.571561
	2.476208	2.572201
	2.474928	2.571881
	2.474608	2.571241
	2.473968	2.572841
	2.473008	2.574121
	2.474288	2.576041
	2.473328	2.576680
	2.472048	2.583720
	2.473648	2.587560
	2.473968	2.591079
	2.473328	2.593319
	2.474928	2.593959
	2.477488	2.593319
	2.479088	2.592359
	2.481967	2.589480
	2.482607	2.585640
	2.485487	2.581480
	2.487727	2.575401
	2.499246	2.568681
	2.494446	2.562601
	2.497006	2.554602
	2.501806	2.547243
	2.506926	2.544363
	2.511405	2.535083
	2.515565	2.527084
	2.521964	2.520685
	2.528364	2.516205
	2.535403	2.511405
	2.540843	2.506286
	2.544363	2.500846
	2.551082	2.498286
	2.552682	2.495406
	2.555242	2.494446
	2.557802	2.493167
	2.558442	2.494126
	2.559402	2.494766
	2.557802	2.497646
	2.558122	2.498926
	2.554922	2.501166
	2.554602	2.504046
	2.553962	2.505646
	2.551722	2.505646
	2.551082	2.504046
	2.551402	2.502446
	2.551402	2.498926
	2.553002	2.497326
	2.554282	2.495086
	2.557482	2.493487
	2.557802	2.492847
	2.560042	2.494126
	2.561002	2.496366
	2.561962	2.501166
	2.561322	2.517805
	2.560682	2.509805
	2.559402	2.513325
	2.557482	2.516845
	2.553322	2.517485
	2.550122	2.515565
	2.545003	2.513005
	2.543403	2.508525
	2.541483	2.504366
	2.537963	2.499246
	2.536683	2.494446
	2.537643	2.491887
	2.538923	2.488687
	2.539883	2.490287
	2.541163	2.490927
	2.542763	2.493806
	2.544043	2.497646
	2.545003	2.500206
	2.545963	2.506606
	2.546283	2.510445
	2.545003	2.515565
	2.543723	2.520685
	2.542443	2.527724
	2.539563	2.534124
	2.536363	2.542123
	2.534764	2.553322
	2.530284	2.562601
	2.528364	2.573481
	2.525164	2.585000
	2.521964	2.595239
	2.519085	2.601639
	2.517485	2.607718
	2.517165	2.609318
	2.514605	2.608678
	2.513325	2.603239
	2.511725	2.597159
	2.510125	2.611878
	2.508845	2.582120
	2.507885	2.575081
	2.505966	2.566761
	2.502446	2.559402
	2.502126	2.553322
	2.498926	2.546923
	2.495726	2.541483
	2.494126	2.535403
	2.490607	2.529644
	2.487087	2.524524
	2.485487	2.517485
	2.484207	2.513325
	2.481647	2.503086
	2.480047	2.503406
	2.480687	2.501806
	2.479088	2.499246
	2.479088	2.498926
	2.479408	2.499246
	2.481647	2.500206
	2.483887	2.500206
	2.486447	2.499886
	2.488367	2.501486
	2.491567	2.500206
	2.497326	2.499246
	2.496366	2.498606
	2.498926	2.497646
	2.502126	2.497646
	2.505966	2.497326
	2.509485	2.497006
	2.512045	2.499246
	2.516205	2.502766
	2.519725	2.506286
	2.522604	2.512685
	2.525804	2.518445
	2.527724	2.523884
	2.529004	2.528364
	2.529644	2.534124
	2.529004	2.537003
	2.528364	2.539563
	2.528044	2.541803
	2.525804	2.543083
	2.523244	2.543403
	2.520045	2.546923
	2.518125	2.543083
	2.516525	2.541483
	2.516845	2.541483
	2.517165	2.540523
	2.519725	2.539563
	2.521644	2.537963
	2.523564	2.535403
	2.530284	2.533804
	2.537003	2.529964
	2.544363	2.526124
	2.549162	2.521644
	2.552362	2.518125
	2.558122	2.513965
	2.562601	2.509485
	2.566121	2.505326
	2.567401	2.502126
	2.566441	2.498926
	2.567081	2.497006
	2.564841	2.495406
	2.561642	2.493167
	2.559082	2.493167
	2.556202	2.492847
	2.553002	2.493487
	2.550122	2.493487
	2.547243	2.494446
	2.543723	2.494126
	2.540203	2.494446
	2.537003	2.495726
	2.534444	2.496686
	2.530284	2.512365
	2.527724	2.497646
	2.524524	2.497006
	2.521964	2.496366
	2.519085	2.495406
	2.516205	2.494126
	2.514605	2.492527
	2.513325	2.489647
	2.513325	2.487727
	2.513325	2.485487
	2.513645	2.483887
	2.515885	2.483247
	2.515885	2.484207
	2.518765	2.485167
	2.521324	2.487407
	2.525484	2.491247
	2.528684	2.496046
	2.530924	2.502126
	2.533164	2.506286
	2.535083	2.512685
	2.536363	2.518765
	2.536043	2.526124
	2.535723	2.532844
	2.534444	2.540843
	2.533164	2.550442
	2.529644	2.558122
	2.526124	2.569961
	2.525164	2.581480
	2.518445	2.595239
	2.513965	2.608678
	2.509485	2.620197
	2.505006	2.631397
	2.498286	2.642596
	2.490607	2.644836
	2.484207	2.646435
	2.476848	2.646115
	2.472688	2.640676
	2.465649	2.634916
	2.458289	2.624357
	2.453809	2.613478
	2.450930	2.600679
	2.448690	2.589800
	2.448370	2.577960
	2.450610	2.572521
	2.453489	2.557802
	2.457969	2.549162
	2.461169	2.542763
	2.468528	2.534764
	2.477488	2.529004
	2.503726	2.523884
	2.493487	2.518765
	2.497326	2.513325
	2.504686	2.508205
	2.509165	2.504366
	2.512685	2.500846
	2.514925	2.500206
	2.515565	2.502446
	2.515885	2.508845
	2.513645	2.518125
	2.512685	2.531564
	2.510445	2.671714
	2.507885	2.568041
	2.506286	2.586600
	2.505646	2.605798
	2.503406	2.624037
	2.503086	2.639076
	2.502446	2.649635
	2.501166	2.656355
	2.503406	2.660194
	2.503726	2.659554
	2.504686	2.654115
	2.503726	2.645795
	2.506606	2.637796
	2.508525	2.626917
	2.512685	2.612518
	2.517805	2.599719
	2.521005	2.587240
	2.527724	2.576041
	2.536683	2.564521
	2.544683	2.553322
	2.551722	2.543723
	2.556202	2.535083
	2.563561	2.528364
	2.568681	2.522284
	2.572841	2.517485
	2.574121	2.514285
	2.576041	2.511085
	2.577960	2.509805
	2.577960	2.509165
	2.576360	2.507246
	2.576041	2.507246
	2.575081	2.507885
	2.572201	2.508205
	2.571241	2.509805
	2.567721	2.508845
	2.564201	2.509485
	2.561322	2.510445
	2.556842	2.512365
	2.550122	2.514285
	2.545643	2.516845
	2.539883	2.519085
	2.536043	2.523244
	2.529644	2.527084
	2.525164	2.532524
	2.521005	2.538283
	2.517485	2.542123
	2.515885	2.546603
	2.513005	2.551082
	2.511085	2.556522
	2.510445	2.559722
	2.510445	2.565161
	2.509165	2.573161
	2.509805	2.581480
	2.510445	2.591719
	2.513645	2.607718
	2.514925	2.616358
	2.519725	2.628517
	2.525484	2.638436
	2.532844	2.643876
	2.539563	2.648035
	2.545323	2.649635
	2.552362	2.647395
	2.558122	2.643876
	2.562601	2.639716
	2.565801	2.637796
	2.565481	2.635236
	2.566441	2.635876
	2.562921	2.639076
	2.560362	2.640996
	2.553962	2.642916
	2.550442	2.642596
	2.545003	2.639716
	2.537963	2.635236
	2.532204	2.628197
	2.527724	2.614758
	2.524844	2.599399
	2.521644	2.585640
	2.520045	2.571881
	2.521005	2.560362
	2.521644	2.552042
	2.525164	2.553002
	2.529324	2.544683
	2.532844	2.548203
	2.537963	2.546283
	2.543403	2.544683
	2.546923	2.542763
	2.551722	2.545643
	2.556522	2.533484
	2.560362	2.562601
	2.562601	2.592679
	2.564521	2.604198
	2.565161	2.707871
	2.564841	2.671074
	2.565161	2.807704
	2.564201	2.547243
	2.575401	2.505006
	2.563561	2.604518
	2.563241	2.529644
	2.562282	2.677153
	2.562282	2.560362
	2.561962	2.581160
	2.561002	2.470448
	2.561002	2.462129
	2.561002	2.491567
	2.560362	2.480047
	2.560682	2.498286
	2.559402	2.478448
	2.557802	2.514285
	2.555562	2.456369
	2.553322	2.451570
	2.552042	2.468208
	2.547883	2.473008
	2.544043	2.511085
	2.540843	2.493806
	2.536363	2.504046
	2.533804	2.482927
	2.529964	2.483887
	2.523884	2.488687
	2.517485	2.491887
	2.514285	2.502126
	2.508205	2.499246
	2.502126	2.517805
	2.496686	2.511085
	2.491247	2.517805
	2.485487	2.533804
	2.479088	2.545643
	2.472368	2.569001
	2.465009	2.576360
	2.458929	2.587880
	2.456369	2.591399
	2.450610	2.590119
	2.447410	2.592039
	2.444850	2.592679
	2.442610	2.595559
	2.442930	2.593959
	2.443250	2.599399
	2.445490	2.595559
	2.447410	2.597479
	2.452209	2.590439
	2.456369	2.588200
	2.461489	2.584680
	2.466288	2.579880
	2.472368	2.578600
	2.478448	2.565801
	2.482287	2.569001
	2.486127	2.559722
	2.491887	2.544043
	2.497646	2.547883
	2.500846	2.523564
	2.504366	2.568041
	2.507246	2.557802
	2.511405	2.535403
	2.513325	2.565801
	2.515565	2.507246
	2.517165	2.514925
	2.517485	2.513325
	2.517485	2.537003
	2.516205	2.527724
	2.514285	2.527724
	2.513325	2.521644
	2.511725	2.513965
	2.509805	2.520685
	2.516525	2.503086
	2.508525	2.503726
	2.507885	2.505646
	2.511405	2.518125
	2.514605	2.521005
	2.518445	2.529644
	2.522604	2.536043
	2.527084	2.541483
	2.530284	2.546283
	2.534444	2.548523
	2.535723	2.549802
	2.536363	2.554282
	2.536043	2.553002
	2.533804	2.548523
	2.531884	2.547883
	2.528044	2.545963
	2.525484	2.544683
	2.525164	2.545643
	2.521324	2.545963
	2.520685	2.551082
	2.519085	2.554602
	2.519405	2.558122
	2.521324	2.559402
	2.522924	2.561962
	2.524524	2.563561
	2.527724	2.561322
	2.531884	2.560362
	2.553002	2.555242
	2.536043	2.553322
	2.539563	2.550122
	2.541163	2.547883
	2.542763	2.546283
	2.544363	2.545003
	2.545003	2.544363
	2.555562	2.546603
	2.545323	2.546603
	2.544043	2.546283
	2.542763	2.546923
	2.542443	2.547243
	2.541803	2.545643
	2.544043	2.542763
	2.544363	2.537323
	2.546603	2.531884
	2.551082	2.531244
	2.555882	2.520365
	2.560362	2.514605
	2.564521	2.508525
	2.570601	2.503406
	2.576360	2.498926
	2.580840	2.495406
	2.586920	2.491247
	2.588520	2.488367
	2.592039	2.484207
	2.593319	2.480047
	2.593959	2.475568
	2.593959	2.472048
	2.594599	2.467568
	2.592039	2.462769
	2.587560	2.459889
	2.585320	2.457009
	2.581800	2.456049
	2.577960	2.458929
	2.573481	2.462129
	2.568681	2.466928
	2.563881	2.472688
	2.558122	2.478768
	2.556202	2.484847
	2.548203	2.489647
	2.542123	2.495726
	2.536363	2.499246
	2.529644	2.502126
	2.526124	2.505326
	2.521005	2.506286
	2.518125	2.507885
	2.513325	2.510125
	2.511085	2.512365
	2.509165	2.513965
	2.508205	2.514925
	2.597479	2.516205
	2.508525	2.517485
	2.508845	2.519085
	2.510445	2.519085
	2.512045	2.519405
	2.514925	2.519085
	2.517485	2.518445
	2.519405	2.518765
	2.520045	2.518445
	2.521964	2.517485
	2.522284	2.518445
	2.522284	2.517165
	2.520685	2.515885
	2.518125	2.516525
	2.513965	2.518125
	2.508525	2.519405
	2.503726	2.521644
	2.497966	2.529004
	2.491887	2.537323
	2.486127	2.547883
	2.480687	2.559402
	2.479088	2.572521
	2.485807	2.585960
	2.485807	2.597479
	2.530924	2.608358
	2.537003	2.614438
	2.622117	2.620197
	2.515565	2.622117
	2.515245	2.622757
	2.519085	2.620517
	2.513645	2.618597
	2.660834	2.619557
	2.594279	2.623717
	2.623717	2.631077
	2.540523	2.640996
	2.613478	2.653155
	2.509805	2.667554
	2.477168	2.683553
	2.484207	2.696672
	2.499566	2.707231
	2.550762	2.715550
	2.543083	2.718110
	2.559082	2.714590
	2.555882	2.705311
	2.595559	2.691552
	2.569641	2.672993
	2.567721	2.657635
	2.572201	2.632036
	2.578920	2.613158
	2.600039	2.596839
	2.594599	2.584680
	2.602279	2.577320
	2.592359	2.572841
	2.603878	2.574441
	2.582440	2.576360
	2.579880	2.581480
	2.579560	2.583400
	2.579880	2.585640
	2.590119	2.588840
	2.583080	2.591079
	2.584360	2.589480
	2.579560	2.587240
	2.582440	2.584680
	2.565801	2.582440
	2.561002	2.598759
	2.557482	2.574121
	2.553642	2.569321
	2.558442	2.563241
	2.556202	2.556202
	2.559082	2.547883
	2.559402	2.539883
	2.566121	2.530604
	2.560042	2.522924
	2.559722	2.516205
	2.561962	2.509805
	2.557482	2.506286
	2.556202	2.504366
	2.553322	2.503406
	2.549802	2.503086
	2.536683	2.504686
	2.538923	2.505966
	2.513325	2.507565
	2.517165	2.511085
	2.565481	2.513325
	2.540203	2.516845
	2.550122	2.519725
	2.527084	2.522604
	2.521005	2.527084
	2.531564	2.530604
	2.522604	2.532204
	2.482287	2.535723
	2.481327	2.536363
	2.494126	2.536683
	2.493487	2.533804
	2.497646	2.529004
	2.494766	2.525804
	2.499886	2.518765
	2.514925	2.512685
	2.514285	2.507565
	2.521964	2.505646
	2.534124	2.501166
	2.547243	2.496686
	2.554282	2.496366
	2.566441	2.497326
	2.574441	2.495406
	2.584040	2.499566
	2.593639	2.500526
	2.595559	2.501486
	2.601959	2.500206
	2.609318	2.497966
	2.617638	2.493806
	2.618277	2.491247
	2.622437	2.487727
	2.623717	2.487407
	2.624677	2.486447
	2.626917	2.489007
	2.621797	2.494446
	2.620197	2.498606
	2.619237	2.510445
	2.618917	2.516845
	2.616358	2.524844
	2.616038	2.530284
	2.612198	2.533164
	2.609318	2.535083
	2.605798	2.534124
	2.599399	2.530604
	2.594279	2.527084
	2.587880	2.522924
	2.581800	2.521005
	2.574761	2.521644
	2.567081	2.522284
	2.561642	2.527404
	2.556202	2.534764
	2.551402	2.546283
	2.546283	2.559082
	2.538923	2.571561
	2.535723	2.586920
	2.530284	2.602279
	2.522924	2.617638
	2.514285	2.631077
	2.504366	2.644836
	2.498606	2.656675
	2.489007	2.667234
	2.478768	2.675873
	2.471088	2.682593
	2.465329	2.690592
	2.463729	2.692192
	2.464369	2.694112
	2.469808	2.695072
	2.478128	2.694432
	2.488687	2.691552
	2.496046	2.686752
	2.509485	2.680993
	2.522604	2.673313
	2.532204	2.662754
	2.540203	2.648995
	2.544683	2.634596
	2.547883	2.618597
	2.548523	2.608358
	2.548203	2.592679
	2.545963	2.578280
	2.544683	2.567401
	2.540843	2.560042
	2.538283	2.556522
	2.536363	2.556842
	2.534444	2.561322
	2.532844	2.570281
	2.530924	2.581480
	2.527404	2.595559
	2.523884	2.607398
	2.519085	2.618597
	2.513325	2.626597
	2.507885	2.632996
	2.499566	2.633956
	2.494126	2.631716
	2.490607	2.626277
	2.486767	2.618597
	2.484847	2.609318
	2.485487	2.598759
	2.489007	2.589480
	2.491567	2.583080
	2.497646	2.577320
	2.504686	2.575081
	2.513005	2.573801
	2.518765	2.574121
	2.522284	2.574441
	2.527724	2.573801
	2.532844	2.572201
	2.535083	2.569321
	2.538283	2.565161
	2.542763	2.560362
	2.541163	2.556202
	2.543083	2.553962
	2.547563	2.555242
	2.550762	2.558762
	2.553962	2.565161
	2.558122	2.575401
	2.564521	2.585640
	2.574121	2.593959
	2.582760	2.600679
	2.588840	2.603878
	2.599079	2.603559
	2.610598	2.598119
	2.622117	2.590119
	2.635236	2.577960
	2.644516	2.565801
	2.659554	2.552682
	2.669154	2.540843
	2.682593	2.529644
	2.695392	2.520685
	2.701791	2.514605
	2.713311	2.505966
	2.724510	2.509485
	2.731549	2.510445
	2.735709	2.513325
	2.737949	2.515885
	2.735069	2.521644
	2.727710	2.526444
	2.715230	2.532524
	2.699232	2.538923
	2.686433	2.544043
	2.665634	2.549482
	2.644836	2.551722
	2.625637	2.555562
	2.609318	2.558442
	2.600679	2.561002
	2.589480	2.564521
	2.584680	2.567401
	2.583400	2.571561
	2.584360	2.576680
	2.585960	2.581480
	2.589160	2.586920
	2.592999	2.591719
	2.594599	2.593639
	2.593639	2.595239
	2.593959	2.593639
	2.592359	2.591399
	2.587880	2.585320
	2.584040	2.581160
	2.581480	2.574761
	2.576680	2.570281
	2.570921	2.567401
	2.565481	2.594279
	2.559402	2.569961
	2.556202	2.572201
	2.547883	2.577320
	2.541803	2.582760
	2.532524	2.585640
	2.522924	2.587560
	2.516525	2.585960
	2.509165	2.583400
	2.499886	2.580200
	2.490607	2.571241
	2.484207	2.563241
	2.480367	2.555562
	2.476528	2.550762
	2.470448	2.546283
	2.467888	2.547563
	2.463089	2.548203
	2.460849	2.552042
	2.457969	2.686113
	2.453169	2.564841
	2.449010	2.571241
	2.445810	2.576041
	2.444210	2.580520
	2.441010	2.583080
	2.438770	2.585640
	2.439410	2.586600
	2.442930	2.588520
	2.445810	2.590119
	2.454449	2.590759
	2.465968	2.593639
	2.479408	2.596199
	2.494446	2.598119
	2.504366	2.597479
	2.520685	2.596839
	2.534764	2.595879
	2.547563	2.592359
	2.556842	2.588200
	2.561322	2.582440
	2.563561	2.577640
	2.562921	2.574441
	2.559722	2.571241
	2.552682	2.568681
	2.548203	2.568681
	2.539243	2.569641
	2.528684	2.571241
	2.520045	2.572841
	2.512365	2.574441
	2.506926	2.576041
	2.500206	2.573161
	2.496366	2.573161
	2.493167	2.569001
	2.491247	2.561962
	2.491567	2.556202
	2.494446	2.550442
	2.498286	2.542763
	2.499886	2.535403
	2.506606	2.529004
	2.508205	2.524524
	2.509805	2.523564
	2.515565	2.522604
	2.516205	2.523244
	2.515565	2.525484
	2.513645	2.528684
	2.512365	2.533484
	2.510445	2.538603
	2.509485	2.543083
	2.509485	2.548203
	2.510125	2.552362
	2.512365	2.559722
	2.516525	2.564201
	2.521644	2.569961
	2.525804	2.574441
	2.531244	2.588840
	2.537323	2.579880
	2.542123	2.581160
	2.545963	2.580200
	2.547883	2.577320
	2.552042	2.573481
	2.557482	2.567401
	2.563241	2.560042
	2.569961	2.554602
	2.576041	2.547563
	2.583080	2.542763
	2.593959	2.538923
	2.602919	2.537643
	2.611558	2.538923
	2.617318	2.540203
	2.623717	2.543083
	2.628197	2.544043
	2.630117	2.545963
	2.636516	2.545643
	2.628197	2.543083
	2.623717	2.538603
	2.619557	2.534124
	2.613478	2.527084
	2.608358	2.521324
	2.604838	2.513325
	2.601639	2.508205
	2.599399	2.504686
	2.598759	2.502126
	2.597799	2.500206
	2.597479	2.500206
	2.597799	2.500206
	2.597799	2.500526
	2.598439	2.498286
	2.596199	2.491887
	2.595879	2.486767
	2.598439	2.481327
	2.596519	2.468208
	2.597799	2.458609
	2.600359	2.449650
	2.603878	2.440690
	2.608678	2.436211
	2.613158	2.434611
	2.616358	2.435571
	2.618917	2.437171
	2.618277	2.442290
	2.613798	2.448690
	2.607398	2.453489
	2.596839	2.457009
	2.583400	2.459889
	2.572521	2.461489
	2.555242	2.459889
	2.537003	2.457329
	2.520685	2.453489
	2.506606	2.450930
	2.498286	2.448050
	2.488367	2.448050
	2.481647	2.449010
	2.477488	2.454449
	2.473968	2.459569
	2.473008	2.463729
	2.472368	2.471088
	2.471408	2.475568
	2.509485	2.479408
	2.469168	2.480687
	2.467568	2.479408
	2.465009	2.478448
	2.461169	2.476528
	2.457649	2.474928
	2.456049	2.474928
	2.454129	2.478768
	2.454129	2.484207
	2.457649	2.493806
	2.460529	2.505966
	2.464369	2.520685
	2.468208	2.534444
	2.474608	2.549162
	2.479408	2.561322
	2.482927	2.570281
	2.483887	2.576041
	2.484207	2.578600
	2.483247	2.582760
	2.479728	2.582440
	2.474608	2.583720
	2.470128	2.586280
	2.465649	2.590759
	2.458929	2.598759
	2.455409	2.608358
	2.452209	2.618597
	2.450930	2.630117
	2.449330	2.640996
	2.449970	2.649315
	2.449970	2.656035
	2.453169	2.658275
	2.453489	2.656995
	2.458289	2.651235
	2.463409	2.643556
	2.467568	2.634916
	2.475568	2.624997
	2.480047	2.617957
	2.487727	2.612198
	2.497006	2.608358
	2.505326	2.608038
	2.513965	2.608998
	2.520045	2.613478
	2.524844	2.617638
	2.529964	2.622117
	2.532844	2.624677
	2.534764	2.624997
	2.536363	2.623397
	2.537003	2.617957
	2.537323	2.612198
	2.537963	2.603559
	2.540203	2.593959
	2.542123	2.585640
	2.546283	2.577000
	2.550442	2.568041
	2.555562	2.562282
	2.562601	2.557162
	2.565481	2.554282
	2.572201	2.551722
	2.577000	2.547243
	2.579880	2.545963
	2.581480	2.542763
	2.580200	2.540843
	2.578920	2.538283
	2.575081	2.535403
	2.569961	2.532524
	2.565481	2.530924
	2.559722	2.528044
	2.553962	2.527404
	2.547563	2.528364
	2.542763	2.528044
	2.537323	2.529324
	2.535723	2.531564
	2.531884	2.531244
	2.530604	2.530604
	2.529324	2.529004
	2.529644	2.526444
	2.529644	2.521964
	2.530284	2.518765
	2.530924	2.511725
	2.531884	2.505966
	2.533804	2.505966
	2.535403	2.495726
	2.538603	2.492207
	2.540523	2.489967
	2.544683	2.489007
	2.547563	2.489007
	2.550762	2.490607
	2.554922	2.492847
	2.560362	2.497006
	2.564201	2.501486
	2.566441	2.507565
	2.570281	2.508845
	2.572841	2.513645
	2.575081	2.518445
	2.577000	2.522924
	2.577640	2.527724
	2.579240	2.532844
	2.578600	2.537963
	2.579240	2.543403
	2.577320	2.549162
	2.576680	2.556842
	2.573801	2.561642
	2.571241	2.568361
	2.566761	2.574441
	2.563241	2.577960
	2.560042	2.581480
	2.554602	2.583080
	2.555562	2.584040
	2.542763	2.584360
	2.537323	2.583400
	2.532844	2.584680
	2.529324	2.587240
	2.524844	2.588840
	2.522604	2.592359
	2.519725	2.595239
	2.520045	2.599079
	2.520045	2.601319
	2.518765	2.602279
	2.519085	2.600359
	2.519085	2.596839
	2.520045	2.592039
	2.520045	2.584680
	2.523564	2.578280
	2.523884	2.573161
	2.525804	2.583400
	2.528044	2.567721
	2.531564	2.568361
	2.536683	2.569961
	2.543723	2.571881
	2.549482	2.576360
	2.557482	2.577320
	2.567081	2.576041
	2.576360	2.571561
	2.587240	2.563561
	2.595879	2.553322
	2.600039	2.540523
	2.606118	2.525484
	2.610278	2.509485
	2.611878	2.492207
	2.610918	2.481967
	2.608998	2.469808
	2.605478	2.460849
	2.601639	2.457969
	2.594279	2.452529
	2.589160	2.451250
	2.584680	2.451250
	2.578280	2.451250
	2.572201	2.450290
	2.565801	2.449330
	2.559402	2.447410
	2.553962	2.575401
	2.559082	2.441650
	2.542443	2.438450
	2.537323	2.435571
	2.530604	2.432051
	2.527404	2.430771
	2.522284	2.430771
	2.518765	2.431731
	2.514285	2.433651
	2.511405	2.454769
	2.512365	2.440050
	2.505966	2.443570
	2.502446	2.446450
	2.499566	2.448050
	2.495406	2.450290
	2.492207	2.450290
	2.486127	2.451250
	2.481327	2.453489
	2.475248	2.510445
	2.477808	2.459889
	2.467568	2.469488
	2.464689	2.472048
	2.460849	2.481327
	2.459889	2.488367
	2.460209	2.497966
	2.460849	2.507246
	2.461809	2.515565
	2.460849	2.529964
	2.471088	2.525484
	2.461489	2.528684
	2.460529	2.531884
	2.458929	2.534444
	2.455729	2.537003
	2.450930	2.540523
	2.449970	2.544363
	2.447090	2.549802
	2.444210	2.564841
	2.444530	2.561962
	2.440690	2.568681
	2.440370	2.573481
	2.439730	2.578280
	2.441010	2.580200
	2.441970	2.581160
	2.443890	2.580840
	2.446130	2.580200
	2.448050	2.594279
	2.453169	2.577320
	2.453489	2.577960
	2.455089	2.577640
	2.457969	2.582120
	2.461489	2.587880
	2.465009	2.595559
	2.471088	2.609638
	2.475248	2.618597
	2.479088	2.645795
	2.488367	2.641636
	2.489647	2.651875
	2.495726	2.776986
	2.501166	2.740509
	2.503726	2.704671
	2.508845	2.714590
	2.513965	2.677793
	2.518765	2.668194
	2.524204	2.728989
	2.527404	2.635236
	2.532844	2.626917
	2.539243	2.639716
	2.547883	2.648995
	2.555882	2.611558
	2.560682	2.605798
	2.569961	2.591399
	2.578920	2.584360
	2.587880	2.616358
	2.599399	2.569641
	2.606438	2.569001
	2.617957	2.578920
	2.631077	2.585000
	2.645475	2.577640
	2.657955	2.581480
	2.664354	2.583400
	2.676513	2.586280
	2.686752	2.596519
	2.694752	2.584680
	2.699232	2.582760
	2.702111	2.581160
	2.703711	2.572521
	2.701791	2.555882
	2.697952	2.540843
	2.694752	2.525804
	2.688032	2.511085
	2.678433	2.504046
	2.669794	2.487727
	2.659554	2.478768
	2.653475	2.475568
	2.642916	2.473328
	2.633956	2.468528
	2.624997	2.469488
	2.617638	2.472368
	2.613478	2.475888
	2.613798	2.480047
	2.605478	2.485487
	2.603559	2.491247
	2.602919	2.495726
	2.603239	2.501486
	2.603239	2.502766
	2.601959	2.509485
	2.601319	2.515565
	2.599399	2.524524
	2.595879	2.534444
	2.588520	2.547883
	2.579880	2.562601
	2.569641	2.576360
	2.557162	2.591719
	2.549482	2.604198
	2.537003	2.615718
	2.527404	2.624677
	2.517165	2.631716
	2.510125	2.634276
	2.505646	2.635876
	2.501806	2.636836
	2.499246	2.635236
	2.500526	2.631716
	2.503406	2.626917
	2.506926	2.622117
	2.513325	2.614438
	2.523564	2.605478
	2.536043	2.593639
	2.550442	2.583080
	2.559402	2.569321
	2.575721	2.555882
	2.591719	2.544363
	2.606118	2.531564
	2.618277	2.521005
	2.625957	2.512045
	2.673633	2.510765
	2.639076	2.509485
	2.642276	2.621477
	2.643236	2.521964
	2.643876	2.534124
	2.642276	2.547883
	2.638436	2.564201
	2.635876	2.581800
	2.634596	2.597479
	2.637476	2.616358
	2.629157	2.624997
	2.625957	2.636516
	2.622117	2.643236
	2.618597	2.648675
	2.616998	2.653475
	2.614118	2.656995
	2.611238	2.657635
	2.609318	2.657635
	2.609638	2.661794
	2.608678	2.659874
	2.610278	2.659874
	2.611878	2.657955
	2.614438	2.655395
	2.615718	2.651555
	2.617957	2.646435
	2.620517	2.642276
	2.621157	2.639716
	2.620837	2.635876
	2.620197	2.631716
	2.619557	2.630437
	2.616678	2.628517
	2.612518	2.629157
	2.611238	2.629477
	2.609958	2.630117
	2.608358	2.629797
	2.606438	2.632036
	2.607078	2.631077
	2.605798	2.628837
	2.602919	2.630757
	2.599399	2.624677
	2.597479	2.619877
	2.593959	2.615078
	2.587880	2.608998
	2.583080	2.605798
	2.574441	2.600999
	2.565481	2.598439
	2.555562	2.596199
	2.543723	2.598439
	2.536683	2.598759
	2.527404	2.603239
	2.515565	2.610278
	2.510445	2.617318
	2.504366	2.625317
	2.502446	2.633956
	2.500526	2.642596
	2.499886	2.649315
	2.501166	2.654755
	2.503406	2.658915
	2.505326	2.661794
	2.507246	2.664034
	2.509485	2.667234
	2.508525	2.667874
	2.506926	2.668834
	2.506926	2.670754
	2.501486	2.671714
	2.497326	2.672354
	2.491887	2.672993
	2.486767	2.671714
	2.483887	2.671394
	2.478768	2.668834
	2.475248	2.667234
	2.471088	2.664994
	2.470768	2.661794
	2.468208	2.658275
	2.463729	2.658275
	2.462449	2.655075
	2.460209	2.656035
	2.456689	2.656035
	2.457649	2.655075
	2.457329	2.654755
	2.458609	2.655715
	2.461809	2.654435
	2.468208	2.653795
	2.473328	2.652515
	2.481647	2.650275
	2.490607	2.646755
	2.504366	2.644196
	2.514605	2.639716
	2.520685	2.632356
	2.529324	2.624677
	2.535403	2.614438
	2.543083	2.601959
	2.545003	2.587880
	2.547563	2.573161
	2.554922	2.558442
	2.554602	2.541803
	2.569641	2.526764
	2.573801	2.512365
	2.641956	2.499886
	2.588520	2.490607
	2.595559	2.481647
	2.662754	2.474288
	2.683553	2.471408
	2.674913	2.468208
	2.679393	2.465968
	2.632996	2.464689
	2.632036	2.462449
	2.700192	2.460529
	2.616038	2.458289
	2.614118	2.457649
	2.612198	2.452849
	2.609318	2.448050
	2.603559	2.446450
	2.601319	2.445810
	2.591719	2.445810
	2.594919	2.447730
	2.601639	2.452849
	2.603878	2.470768
	2.615398	2.465329
	2.623397	2.471088
	2.629157	2.477808
	2.629797	2.481647
	2.629477	2.484527
	2.619237	2.486447
	2.611558	2.489007
	2.600359	2.490927
	2.586600	2.494446
	2.635556	2.498926
	2.565801	2.508525
	2.553322	2.523564
	2.541803	2.540523
	2.532524	2.562282
	2.524844	2.586280
	2.517485	2.610918
	2.513005	2.632676
	2.508525	2.652195
	2.508525	2.664994
	2.504686	2.672034
	2.502126	2.674913
	2.499246	2.671074
	2.497006	2.664994
	2.494766	2.656675
	2.496686	2.646435
	2.496366	2.637796
	2.501486	2.628517
	2.509805	2.621157
	2.516525	2.614118
	2.523244	2.607398
	2.537323	2.601319
	2.544363	2.595559
	2.553962	2.588520
	2.566441	2.582440
	2.570601	2.577000
	2.576680	2.583400
	2.582120	2.565801
	2.583080	2.561962
	2.582440	2.559722
	2.578280	2.558442
	2.579240	2.560042
	2.574441	2.559082
	2.572521	2.558442
	2.567721	2.560362
	2.565801	2.558762
	2.561642	2.556842
	2.557482	2.554602
	2.554922	2.552362
	2.553322	2.548203
	2.551082	2.550762
	2.549162	2.550762
	2.548203	2.551082
	2.546603	2.551722
	2.545003	2.557482
	2.543083	2.556842
	2.541803	2.559722
	2.539243	2.559722
	2.537963	2.560362
	2.536683	2.557482
	2.534764	2.556842
	2.533484	2.553322
	2.530924	2.550762
	2.529004	2.690272
	2.528044	2.546283
	2.526124	2.546923
	2.527404	2.548203
	2.528684	2.550442
	2.532844	2.552042
	2.535403	2.553002
	2.540523	2.553642
	2.547563	2.553642
	2.556522	2.553962
	2.564521	2.550442
	2.569961	2.547563
	2.576041	2.546283
	2.584360	2.545323
	2.589800	2.544683
	2.593319	2.547243
	2.595239	2.551722
	2.602919	2.557162
	2.597479	2.559722
	2.595559	2.566761
	2.594599	2.574121
	2.592039	2.579560
	2.588840	2.583400
	2.587560	2.585960
	2.585000	2.586600
	2.583080	2.584680
	2.582760	2.580200
	2.582440	2.580520
	2.582440	2.567721
	2.585960	2.560362
	2.591079	2.552042
	2.595239	2.543723
	2.602919	2.536683
	2.612198	2.530924
	2.624037	2.524844
	2.634596	2.520365
	2.641956	2.516845
	2.650275	2.513325
	2.655715	2.509165
	2.654755	2.507246
	2.651875	2.505966
	2.645475	2.505326
	2.632996	2.507246
	2.619237	2.511085
	2.601639	2.515245
	2.583080	2.523884
	2.570281	2.532844
	2.552042	2.544043
	2.535083	2.553322
	2.516845	2.562601
	2.505006	2.570601
	2.493487	2.575401
	2.481967	2.577000
	2.474608	2.576360
	2.471408	2.571241
	2.467568	2.563561
	2.469168	2.556522
	2.474608	2.548203
	2.484207	2.541163
	2.497006	2.536043
	2.508205	2.530604
	2.525804	2.529644
	2.545963	2.528684
	2.566441	2.527724
	2.585320	2.527724
	2.598439	2.527724
	2.613478	2.526764
	2.629477	2.525164
	2.641956	2.524204
	2.651555	2.521324
	2.657955	2.519085
	2.664994	2.520045
	2.670434	2.518765
	2.675233	2.521324
	2.675873	2.523244
	2.675233	2.529644
	2.673313	2.534764
	2.670114	2.540203
	2.665314	2.546283
	2.658595	2.552042
	2.654435	2.572521
	2.646115	2.558122
	2.641956	2.560042
	2.636196	2.561642
	2.634596	2.561322
	2.632036	2.561002
	2.632676	2.559402
	2.633636	2.557802
	2.634596	2.555242
	2.633956	2.557482
	2.633316	2.553322
	2.630757	2.553002
	2.624357	2.553642
	2.615398	2.554602
	2.608678	2.554602
	2.601319	2.557802
	2.591079	2.559402
	2.579880	2.560682
	2.567401	2.563241
	2.558442	2.564841
	2.551082	2.567081
	2.544683	2.567721
	2.540843	2.569641
	2.538283	2.567081
	2.538283	2.564201
	2.540203	2.559722
	2.545963	2.553642
	2.624997	2.547563
	2.555242	2.538603
	2.563561	2.529644
	2.570601	2.520685
	2.577320	2.509485
	2.586280	2.503086
	2.595879	2.497646
	2.600999	2.491887
	2.610278	2.489967
	2.615078	2.489007
	2.616358	2.489327
	2.616358	2.492527
	2.613798	2.496686
	2.607078	2.501486
	2.593959	2.507246
	2.576041	2.514285
	2.553962	2.520045
	2.537963	2.528044
	2.511405	2.535083
	2.481007	2.542443
	2.452529	2.548523
	2.428531	2.553962
	2.414132	2.559402
	2.397173	2.561642
	2.386294	2.562601
	2.382135	2.561962
	2.385974	2.559722
	2.389814	2.553642
	2.401653	2.547563
	2.418292	2.537643
	2.436531	2.528364
	2.458929	2.516525
	2.475248	2.505326
	2.500526	2.491887
	2.528364	2.482287
	2.560682	2.472368
	2.592359	2.464049
	2.615078	2.459889
	2.648675	2.457009
	2.684193	2.458609
	2.718430	2.462129
	2.750748	2.466288
	2.771226	2.473648
	2.798424	2.479728
	2.822743	2.486127
	2.836822	2.492207
	2.844501	2.498286
	2.845141	2.503726
	2.839381	2.510445
	2.828182	2.513645
	2.808664	2.521964
	2.784985	2.529324
	2.767067	2.539563
	2.738589	2.550122
	2.710431	2.562921
	2.685153	2.573481
	2.662754	2.583400
	2.649315	2.593959
	2.632356	2.599719
	2.620517	2.604518
	2.611558	2.605158
	2.604838	2.601959
	2.602279	2.597479
	2.597159	2.592359
	2.594919	2.586920
	2.594279	2.582440
	2.596519	2.581160
	2.598439	2.582440
	2.603559	2.586920
	2.611878	2.594919
	2.623077	2.601959
	2.634276	2.611878
	2.640676	2.620517
	2.649635	2.628517
	2.657315	2.631397
	2.658915	2.632036
	2.655395	2.627557
	2.650595	2.621157
	2.639396	2.611878
	2.622757	2.598439
	2.606758	2.596199
	2.590439	2.575721
	2.569961	2.564841
	2.546603	2.555242
	2.527084	2.546923
	2.510125	2.542443
	2.498286	2.537003
	2.485807	2.536043
	2.475888	2.536683
	2.503406	2.536683
	2.467568	2.536043
	2.466928	2.533484
	2.470768	2.530284
	2.476848	2.524844
	2.484847	2.519725
	2.494126	2.512365
	2.500206	2.505326
	2.509485	2.499246
	2.519725	2.495406
	2.529644	2.494446
	2.539883	2.494766
	2.548523	2.499886
	2.562601	2.506286
	2.577640	2.515565
	2.596519	2.522924
	2.616678	2.531564
	2.628837	2.538283
	2.648035	2.544683
	2.665314	2.548523
	2.680353	2.550762
	2.690592	2.550122
	2.696032	2.548523
	2.697952	2.546923
	2.700511	2.545643
	2.698912	2.545323
	2.699872	2.547563
	2.712031	2.550762
	2.698592	2.554602
	2.698912	2.560362
	2.700511	2.565481
	2.703391	2.569961
	2.703071	2.574761
	2.701151	2.576680
	2.695072	2.577320
	2.687072	2.575081
	2.735389	2.571881
	2.663394	2.567721
	2.647075	2.560682
	2.631077	2.556522
	2.612838	2.554602
	2.600039	2.552042
	2.592679	2.555242
	2.581480	2.556522
	2.573801	2.561002
	2.567081	2.565481
	2.559402	2.567721
	2.555562	2.569641
	2.548523	2.569641
	2.540843	2.565481
	2.534444	2.561962
	2.527404	2.554922
	2.523884	2.546923
	2.521644	2.538283
	2.521964	2.529644
	2.526764	2.523564
	2.536363	2.521005
	2.542763	2.521964
	2.559722	2.519085
	2.577960	2.527084
	2.598119	2.532204
	2.612838	2.537963
	2.633316	2.542763
	2.651555	2.549162
	2.668194	2.553002
	2.682273	2.559082
	2.688352	2.565481
	2.696352	2.573161
	2.699552	2.582120
	2.700831	2.594279
	2.700192	2.606438
	2.699232	2.732509
	2.696352	2.631716
	2.691872	2.641316
	2.686113	2.649315
	2.677153	2.652195
	2.671074	2.651555
	2.661794	2.648995
	2.648995	2.644836
	2.632676	2.642596
	2.617957	2.645156
	2.606758	2.643876
	2.591079	2.650915
	2.574761	2.660834
	2.562282	2.673313
	2.549802	2.687072
	2.542443	2.699552
	2.534124	2.707871
	2.527724	2.710751
	2.522604	2.711711
	2.517165	2.704671
	2.515565	2.690592
	2.511725	2.675873
	2.510125	2.663074
	2.508845	2.650275
	2.506926	2.645475
	2.507246	2.645156
	2.508845	2.650595
	2.510445	2.661154
	2.513645	2.676193
	2.516525	2.685153
	2.517165	2.700511
	2.518765	2.714590
	2.519725	2.722270
	2.518445	2.725150
	2.517805	2.722270
	2.517485	2.713951
	2.515885	2.702111
	2.511085	2.689952
	2.510445	2.673953
	2.510125	2.663074
	2.510445	2.654115
	2.511085	2.649955
	2.513005	2.648995
	2.515245	2.652515
	2.519405	2.654755
	2.521964	2.656355
	2.525804	2.677793
	2.527724	2.647715
	2.529644	2.636836
	2.528684	2.620837
	2.527724	2.601319
	2.524524	2.577640
	2.521005	2.555562
	2.515565	2.532524
	2.511085	2.513645
	2.505966	2.499566
	2.501806	2.488687
	2.497326	2.483887
	2.495086	2.481647
	2.493806	2.484847
	2.492527	2.491567
	2.495406	2.498926
	2.498286	2.507885
	2.506926	2.515245
	2.505326	2.522284
	2.509485	2.527724
	2.513965	2.534764
	2.518125	2.538283
	2.520365	2.540523
	2.522284	2.539883
	2.522284	2.538283
	2.521964	2.630117
	2.521005	2.529004
	2.520365	2.521644
	2.519405	2.512365
	2.519405	2.502766
	2.520365	2.491887
	2.521964	2.481007
	2.525804	2.472368
	2.528364	2.463729
	2.530924	2.477808
	2.535083	2.451570
	2.535723	2.449330
	2.537003	2.448050
	2.537003	2.447410
	2.537323	2.447410
	2.536683	2.446450
	2.533804	2.444850
	2.531884	2.443250
	2.529324	2.441650
	2.525164	2.434931
	2.525164	2.433011
	2.523244	2.430131
	2.525164	2.430131
	2.525484	2.430451
	2.528364	2.436531
	2.532204	2.441330
	2.538283	2.446450
	2.545323	2.455729
	2.550762	2.464689
	2.560042	2.473648
	2.570921	2.481007
	2.582440	2.488367
	2.594919	2.493806
	2.600039	2.496686
	2.609958	2.501806
	2.619557	2.505966
	2.627557	2.512045
	2.632676	2.521005
	2.634916	2.533484
	2.637156	2.550122
	2.635876	2.571241
	2.629797	2.594279
	2.625957	2.617957
	2.618597	2.644196
	2.608358	2.667554
	2.594599	2.686752
	2.581480	2.701471
	2.568041	2.710111
	2.558122	2.714590
	2.545323	2.714590
	2.531884	2.708831
	2.521005	2.704351
	2.510445	2.696352
	2.504046	2.785625
	2.495726	2.681313
	2.490607	2.673633
	2.487727	2.667234
	2.484207	2.659874
	2.483887	2.654435
	2.482607	2.646115
	2.483567	2.643876
	2.484847	2.639076
	2.486447	2.780186
	2.489647	2.632036
	2.493167	2.628837
	2.497326	2.628517
	2.502766	2.628517
	2.503726	2.630437
	2.507565	2.632996
	2.510765	2.637796
	2.513645	2.640356
	2.516525	2.679713
	2.517485	2.646435
	2.521324	2.648035
	2.523244	2.651555
	2.526444	2.654755
	2.530284	2.677153
	2.531884	2.698592
	2.536683	2.790105
	2.539563	2.784345
	2.542123	2.902097
	2.545003	2.770266
	2.544683	2.799384
	2.544363	2.874259
	2.544043	2.844821
	2.541803	2.961613
	2.540843	2.858260
	2.541803	3.034567
	2.538923	2.809944
	2.539563	2.821143
	2.539243	2.650595
	2.540523	2.656675
	2.541483	2.675553
	2.543403	2.649955
	2.545323	2.669794
	2.546283	2.639716
	2.549162	2.673313
	2.549162	2.628837
	2.550762	2.637476
	2.553322	2.586920
	2.555882	2.588840
	2.558122	2.603239
	2.560042	2.600039
	2.565161	2.616678
	2.571241	2.604198
	2.576680	2.626597
	2.585320	2.605478
	2.589480	2.608038
	2.598439	2.582760
	2.604198	2.579560
	2.607718	2.580200
	2.611558	2.569961
	2.613158	2.572201
	2.612198	2.560682
	2.609958	2.568681
	2.608678	2.555562
	2.603559	2.547883
	2.600679	2.549802
	2.597479	2.552042
	2.595879	2.560042
	2.594919	2.561962
	2.595879	2.567401
	2.598119	2.565161
	2.602599	2.570601
	2.607078	2.561962
	2.613478	2.553322
	2.617957	2.545643
	2.621797	2.540523
	2.624357	2.533484
	2.628517	2.521964
	2.629477	2.514605
	2.629477	2.498286
	2.630117	2.494766
	2.630117	2.481647
	2.631397	2.471728
	2.631716	2.465968
	2.632356	2.461489
	2.634916	2.514285
	2.634916	2.497966
	2.633956	2.488047
	2.629157	2.473968
	2.625317	2.448050
	2.617318	2.441010
	2.606118	2.425331
	2.592359	2.437491
	2.577000	2.422132
	2.565801	2.434291
	2.550762	2.423092
	2.537003	2.436211
	2.522284	2.429491
	2.512045	2.432371
	2.506606	2.433011
	2.503086	2.434291
	2.500206	2.441970
	2.500526	2.444530
	2.501166	2.449330
	2.503726	2.449330
	2.508205	2.454449
	2.512365	2.452209
	2.516525	2.454449
	2.521644	2.450930
	2.522604	2.449330
	2.525804	2.449970
	2.527084	2.448690
	2.527724	2.450290
	2.527724	2.447090
	2.527724	2.449650
	2.525804	2.450930
	2.523884	2.456049
	2.521324	2.459569
	2.519085	2.464369
	2.514605	2.471728
	2.511725	2.479088
	2.505966	2.486447
	2.499246	2.491247
	2.494446	2.496046
	2.488687	2.497006
	2.482927	2.496366
	2.475888	2.492527
	2.470768	2.489647
	2.469488	2.485807
	2.469488	2.483567
	2.472048	2.481007
	2.476528	2.480687
	2.478768	2.485807
	2.490287	2.492207
	2.497326	2.504366
	2.505966	2.519085
	2.514925	2.535723
	2.521644	2.556522
	2.528044	2.575401
	2.531244	2.594919
	2.537323	2.611238
	2.540523	2.625637
	2.543083	2.634916
	2.545323	2.644836
	2.547243	2.650595
	2.550762	2.651875
	2.554922	2.655075
	2.560042	2.655715
	2.562601	2.657315
	2.567081	2.658595
	2.572201	2.660514
	2.575721	2.663074
	2.577000	2.665954
	2.576360	2.670114
	2.575721	2.673313
	2.574761	2.677793
	2.571241	2.683233
	2.566121	2.688032
	2.561002	2.695712
	2.555242	2.704351
	2.545323	2.715550
	2.535083	2.726750
	2.521964	2.740829
	2.512685	2.756187
	2.499886	2.774106
	2.485487	2.791385
	2.473648	2.807064
	2.461809	2.820823
	2.454769	2.832982
	2.443890	2.842261
	2.438131	2.847061
	2.432691	2.848981
	2.430451	2.847701
	2.429491	2.842901
	2.431091	2.834902
	2.432691	2.824023
	2.435571	2.812503
	2.438770	2.799704
	2.441970	2.785305
	2.449650	2.768667
	2.478768	2.753308
	2.469808	2.735709
	2.483567	2.716510
	2.495406	2.696992
	2.512685	2.678433
	2.534124	2.660834
	2.555242	2.641316
	2.578600	2.625957
	2.591719	2.609638
	2.626597	2.595559
	2.627557	2.585000
	2.640996	2.571881
	2.647715	2.558122
	2.652195	2.545643
	2.652515	2.535083
	2.650595	2.523244
	2.646115	2.512045
	2.642916	2.500846
	2.641316	2.491567
	2.641956	2.482287
	2.638436	2.472688
	2.669474	2.465329
	2.746908	2.458609
	2.740509	2.452209
	2.818583	2.447090
	2.807704	2.441650
	2.935694	2.436531
	2.741469	2.431411
	2.713311	2.425011
	2.771546	2.422132
	2.723230	2.415732
	2.814743	2.411572
	2.750748	2.407733
	2.741469	2.402613
	2.689632	2.400693
	2.736669	2.400693
	2.653795	2.402613
	2.649635	2.405813
	2.661474	2.409973
	2.658915	2.414132
	2.695712	2.421172
	2.680993	2.427891
	2.683233	2.429811
	2.675553	2.432371
	2.691232	2.432691
	2.645475	2.432051
	2.629797	2.428531
	2.630757	2.423732
	2.615078	2.420532
	2.617957	2.415732
	2.599399	2.414772
	2.594279	2.412852
	2.586920	2.415092
	2.588200	2.416692
	2.569961	2.421492
	2.566441	2.426291
	2.570921	2.432371
	2.567081	2.437171
	2.571561	2.441650
	2.561002	2.445170
	2.555882	2.448050
	2.543403	2.449650
	2.532524	2.452209
	2.521964	2.456049
	2.508525	2.457329
	2.498606	2.464049
	2.487407	2.472048
	2.487087	2.482927
	2.475568	2.493167
	2.471088	2.507246
	2.462769	2.521644
	2.456049	2.534124
	2.453809	2.546923
	2.451250	2.559082
	2.452209	2.565161
	2.449010	2.571241
	2.452849	2.573161
	2.451890	2.574441
	2.477168	2.575081
	2.476848	2.575401
	2.459249	2.577320
	2.452209	2.579880
	2.458609	2.586280
	2.506286	2.591079
	2.491567	2.599399
	2.512365	2.610278
	2.486127	2.618597
	2.490287	2.628837
	2.495406	2.635876
	2.496686	2.639076
	2.509485	2.639716
	2.528364	2.637796
	2.553642	2.632036
	2.566761	2.624357
	2.585960	2.614758
	2.594919	2.603239
	2.607078	2.591399
	2.615078	2.580840
	2.617318	2.570921
	2.623717	2.561962
	2.674913	2.555562
	2.629797	2.549482
	2.626917	2.545643
	2.624677	2.543723
	2.613478	2.543083
	2.604838	2.544043
	2.594919	2.545643
	2.583720	2.549482
	2.571241	2.553322
	2.563561	2.559402
	2.548523	2.564841
	2.535723	2.571561
	2.528364	2.577960
	2.520685	2.584040
	2.511725	2.588840
	2.504686	2.593639
	2.498286	2.598439
	2.496046	2.601959
	2.497326	2.605798
	2.495726	2.608998
	2.497966	2.611558
	2.500846	2.615398
	2.501486	2.618277
	2.506286	2.620837
	2.509805	2.625317
	2.513325	2.629477
	2.513325	2.634596
	2.520365	2.639396
	2.522604	2.644836
	2.526124	2.650275
	2.529644	2.654115
	2.531884	2.658275
	2.537643	2.659554
	2.545323	2.659554
	2.553002	2.656675
	2.562601	2.651875
	2.571881	2.646755
	2.578280	2.639076
	2.592679	2.631716
	2.602599	2.625317
	2.607398	2.617957
	2.609958	2.612518
	2.610278	2.608038
	2.609318	2.604518
	2.604838	2.600039
	2.598759	2.595239
	2.592679	2.591719
	2.583720	2.585640
	2.577640	2.580200
	2.572521	2.574761
	2.569641	2.569321
	2.569641	2.565481
	2.572201	2.561322
	2.578280	2.558122
	2.585960	2.556202
	2.591079	2.555242
	2.597479	2.553322
	2.605158	2.551082
	2.610918	2.546923
	2.616358	2.539883
	2.620517	2.529964
	2.622437	2.519725
	2.625957	2.512365
	2.628197	2.490607
	2.629477	2.477168
	2.629477	2.464049
	2.629157	2.450930
	2.628837	2.441650
	2.628837	2.434611
	2.627557	2.429811
	2.627237	2.425331
	2.626277	2.423732
	2.625957	2.420532
	2.623717	2.417332
	2.620517	2.415092
	2.615398	2.412532
	2.612198	2.409973
	2.605158	2.409013
	2.599719	2.409333
	2.593319	2.409653
	2.588520	2.414132
	2.584680	2.419892
	2.582120	2.425331
	2.581160	2.433011
	2.582120	2.439730
	2.585320	2.447090
	2.589480	2.453169
	2.597479	2.460529
	2.604198	2.467248
	2.612518	2.471408
	2.614758	2.475568
	2.619237	2.481967
	2.622437	2.487087
	2.623397	2.493167
	2.622117	2.499246
	2.620837	2.504686
	2.617318	2.510765
	2.611558	2.514285
	2.606118	2.515245
	2.600999	2.516525
	2.597479	2.517485
	2.590119	2.516525
	2.590439	2.515565
	2.588840	2.514285
	2.589480	2.514285
	2.591399	2.513965
	2.591719	2.513325
	2.595239	2.513645
	2.599719	2.513325
	2.605798	2.513645
	2.609318	2.511405
	2.614438	2.508845
	2.619877	2.505646
	2.624677	2.499566
	2.633316	2.494446
	2.635556	2.492847
	2.641636	2.487727
	2.648355	2.485167
	2.654435	2.484847
	2.657315	2.484207
	2.659874	2.485487
	2.659874	2.487087
	2.656995	2.489007
	2.655715	2.491247
	2.643876	2.491567
	2.637156	2.491887
	2.623077	2.491887
	2.609318	2.491567
	2.593639	2.489327
	2.577960	2.488367
	2.566121	2.487407
	2.551722	2.487727
	2.539243	2.486767
	2.530604	2.487087
	2.520045	2.487407
	2.516525	2.486127
	2.514285	2.485807
	2.513005	2.484527
	2.512685	2.482927
	2.516205	2.481007
	2.519085	2.479408
	2.525164	2.476848
	2.530284	2.477488
	2.537003	2.477488
	2.544043	2.478128
	2.547563	2.481647
	2.552682	2.486447
	2.556842	2.491567
	2.561962	2.498926
	2.562601	2.505646
	2.563241	2.512685
	2.562601	2.518765
	2.560362	2.525484
	2.557802	2.530284
	2.554922	2.533804
	2.551082	2.537643
	2.546923	2.541163
	2.543723	2.545643
	2.540843	2.549162
	2.539883	2.553962
	2.536683	2.556842
	2.536043	2.559082
	2.533804	2.561962
	2.533484	2.564521
	2.531884	2.563561
	2.530924	2.563881
	2.529644	2.561642
	2.527404	2.558442
	2.525484	2.558122
	2.525804	2.551082
	2.523884	2.546923
	2.524524	2.544363
	2.522924	2.542443
	2.522284	2.541163
	2.522604	2.540843
	2.522604	2.541483
	2.521005	2.543083
	2.521644	2.559082
	2.521005	2.546283
	2.521005	2.547243
	2.521005	2.547563
	2.520365	2.548523
	2.521005	2.546603
	2.521964	2.544363
	2.521324	2.544043
	2.523884	2.542123
	2.525164	2.541803
	2.526764	2.540203
	2.527084	2.539243
	2.528044	2.539883
	2.528044	2.535083
	2.528684	2.537643
	2.528684	2.537323
	2.527724	2.534764
	2.526764	2.533164
	2.525804	2.538603
	2.523244	2.529644
	2.522284	2.527724
	2.519725	2.526444
	2.518125	2.525164
	2.515885	2.523564
	2.511725	2.523244
	2.507246	2.520685
	2.502446	2.520685
	2.498926	2.545323
	2.491887	2.520685
	2.485807	2.519725
	2.481327	2.518125
	2.476528	2.516205
	2.472368	2.514925
	2.469808	2.512685
	2.468528	2.512685
	2.465968	2.512685
	2.469488	2.513005
	2.465649	2.516845
	2.469488	2.522284
	2.472048	2.530924
	2.476208	2.540523
	2.481327	2.552042
	2.488367	2.564201
	2.496366	2.575721
	2.507565	2.585640
	2.522284	2.593319
	2.527404	2.597799
	2.540203	2.599079
	2.553322	2.597159
	2.567081	2.594279
	2.580520	2.588200
	2.588520	2.582120
	2.602279	2.575721
	2.614118	2.570281
	2.626277	2.568681
	2.635236	2.567081
	2.640036	2.568041
	2.646435	2.569641
	2.649315	2.570921
	2.651235	2.573161
	2.648995	2.577000
	2.647715	2.579560
	2.642916	2.581800
	2.636196	2.585320
	2.629157	2.587880
	2.622117	2.589800
	2.618277	2.594279
	2.610598	2.596199
	2.603239	2.601959
	2.595559	2.604198
	2.589480	2.606438
	2.592679	2.619557
	2.577640	2.604838
	2.572201	2.601319
	2.566441	2.594919
	2.562601	2.587880
	2.560362	2.578600
	2.556842	2.568041
	2.554922	2.558122
	2.554602	2.548523
	2.556522	2.542763
	2.559082	2.536683
	2.561002	2.535083
	2.564841	2.533804
	2.565801	2.534124
	2.572201	2.535403
	2.573481	2.536683
	2.575401	2.538923
	2.577000	2.536683
	2.578600	2.547883
	2.579880	2.531884
	2.580200	2.526124
	2.580520	2.521324
	2.580520	2.512365
	2.581480	2.509485
	2.582440	2.504366
	2.584040	2.499246
	2.583080	2.495086
	2.583720	2.492527
	2.584360	2.489967
	2.583720	2.488047
	2.581480	2.484847
	2.578600	2.481327
	2.575401	2.479728
	2.570921	2.476208
	2.569001	2.471088
	2.566441	2.474288
	2.563241	2.463729
	2.561002	2.462129
	2.558122	2.461169
	2.556522	2.461489
	2.553962	2.461809
	2.552042	2.463409
	2.550442	2.465649
	2.548523	2.467568
	2.545643	2.473648
	2.541163	2.470128
	2.537963	2.471088
	2.534444	2.472688
	2.529644	2.472368
	2.527084	2.474928
	2.523884	2.477488
	2.521644	2.482607
	2.520365	2.488687
	2.520045	2.497966
	2.518765	2.507885
	2.518125	2.519405
	2.518765	2.529644
	2.519085	2.538283
	2.519085	2.546603
	2.517485	2.551722
	2.517485	2.555882
	2.515885	2.555882
	2.512685	2.555562
	2.507565	2.554282
	2.506606	2.551402
	2.503726	2.550762
	2.499566	2.550762
	2.496366	2.552682
	2.493806	2.554282
	2.489967	2.559722
	2.489007	2.562921
	2.493806	2.567721
	2.484527	2.569321
	2.482607	2.572521
	2.481327	2.571561
	2.479728	2.571241
	2.479088	2.569001
	2.478128	2.565801
	2.478448	2.562282
	2.477168	2.558442
	2.479088	2.555242
	2.481647	2.553322
	2.483567	2.551402
	2.488367	2.550122
	2.491567	2.549802
	2.497966	2.550762
	2.504366	2.552682
	2.511725	2.553642
	2.520045	2.565161
	2.524844	2.561642
	2.531564	2.566121
	2.537643	2.570921
	2.543083	2.574121
	2.545643	2.579240
	2.546603	2.586280
	2.546603	2.591719
	2.545323	2.598439
	2.542763	2.605158
	2.540523	2.612518
	2.538923	2.618917
	2.535083	2.626917
	2.533804	2.632676
	2.531244	2.636836
	2.532204	2.641316
	2.550122	2.642916
	2.535083	2.643556
	2.537963	2.641316
	2.539563	2.636516
	2.542763	2.629477
	2.544683	2.622437
	2.546603	2.612838
	2.547883	2.602599
	2.550122	2.589800
	2.544043	2.576680
	2.542123	2.564521
	2.537323	2.552042
	2.532844	2.539563
	2.528364	2.529324
	2.525804	2.518765
	2.522924	2.518125
	2.521644	2.504686
	2.523564	2.498926
	2.526444	2.495406
	2.530924	2.491887
	2.538923	2.489327
	2.546603	2.485487
	2.555562	2.482607
	2.566761	2.480687
	2.568681	2.475248
	2.574441	2.473008
	2.578280	2.468528
	2.580200	2.465649
	2.578600	2.461489
	2.576360	2.459249
	2.572201	2.457009
	2.562601	2.456689
	2.557802	2.457969
	2.552042	2.458929
	2.547243	2.461809
	2.541163	2.465329
	2.536683	2.469488
	2.534124	2.473008
	2.531564	2.478128
	2.531564	2.482607
	2.532844	2.489007
	2.536683	2.494766
	2.539563	2.499886
	2.543723	2.503726
	2.546603	2.507565
	2.549162	2.510765
	2.552362	2.510765
	2.555242	2.511085
	2.558762	2.509805
	2.561002	2.506606
	2.564201	2.560362
	2.568041	2.494766
	2.571241	2.489007
	2.575721	2.486127
	2.577320	2.481967
	2.579880	2.480367
	2.580520	2.478768
	2.581160	2.481007
	2.581480	2.481647
	2.579560	2.482607
	2.577320	2.484527
	2.573801	2.485167
	2.571241	2.484847
	2.569961	2.485487
	2.569961	2.485807
	2.570601	2.487407
	2.572201	2.487407
	2.574441	2.488687
	2.577640	2.494126
	2.581160	2.499246
	2.584360	2.507565
	2.607718	2.515245
	2.588840	2.523564
	2.591399	2.532204
	2.593639	2.537963
	2.595559	2.543403
	2.596519	2.546603
	2.596839	2.556202
	2.599079	2.547883
	2.598119	2.547883
	2.596839	2.548203
	2.597159	2.551402
	2.596519	2.553642
	2.596519	2.631077
	2.596839	2.572521
	2.595239	2.583720
	2.595559	2.595559
	2.596519	2.606438
	2.595239	2.615398
	2.598759	2.620837
	2.602919	2.621157
	2.604518	2.617957
	2.607078	2.609958
	2.607718	2.598439
	2.611238	2.584040
	2.609318	2.567401
	2.608038	2.552682
	2.606758	2.537963
	2.605158	2.524204
	2.601319	2.511725
	2.597159	2.503086
	2.591719	2.493167
	2.584680	2.488047
	2.580200	2.482287
	2.570921	2.478448
	2.562601	2.474608
	2.550762	2.472688
	2.540203	2.470128
	2.534444	2.470128
	2.522924	2.468848
	2.513645	2.470128
	2.505006	2.474928
	2.497966	2.482927
	2.494446	2.491887
	2.493487	2.504686
	2.494446	2.513005
	2.497326	2.525804
	2.504046	2.536683
	2.508845	2.546283
	2.517485	2.554282
	2.527404	2.575721
	2.536363	2.565481
	2.544043	2.565801
	2.547563	2.569001
	2.552042	2.566761
	2.554602	2.578600
	2.553962	2.600039
	2.550442	2.577960
	2.547563	2.653155
	2.542123	2.655075
	2.534444	2.622757
	2.525164	2.632676
	2.518765	2.600999
	2.513325	2.564521
	2.504366	2.572521
	2.495726	2.565801
	2.490287	2.576360
	2.483887	2.553322
	2.479728	2.545003
	2.474608	2.524204
	2.468208	2.639396
	2.465009	2.537963
	2.463089	2.526124
	2.460849	2.520365
	2.459249	2.508205
	2.459569	2.506606
	2.461489	2.523564
	2.462129	2.520045
	2.464369	2.519405
	2.467888	2.511085
	2.471728	2.511405
	2.476848	2.513325
	2.479728	2.523564
	2.485167	2.527084
	2.490927	2.519085
	2.496366	2.529644
	2.501806	2.524524
	2.502766	2.535083
	2.508205	2.541803
	2.509165	2.539883
	2.506606	2.544043
	2.505646	2.547563
	2.502766	2.552042
	2.497326	2.562601
	2.493167	2.558762
	2.487727	2.560042
	2.483247	2.569001
	2.480687	2.560362
	2.478128	2.564521
	2.476848	2.561962
	2.474288	2.560682
	2.476208	2.559402
	2.479728	2.556522
	2.476848	2.556202
	2.477808	2.554922
	2.478768	2.552682
	2.477808	2.547563
	2.480047	2.543723
	2.480687	2.537003
	2.482287	2.530924
	2.483887	2.526124
	2.488047	2.521324
	2.489007	2.517485
	2.493167	2.513005
	2.499886	2.513005
	2.505326	2.512685
	2.511405	2.514605
	2.516845	2.517485
	2.631077	2.516525
	2.535403	2.517165
	2.544683	2.517485
	2.554602	2.513325
	2.563561	2.509485
	2.573801	2.507885
	2.584680	2.497326
	2.595879	2.490287
	2.606118	2.482607
	2.612838	2.475888
	2.624357	2.471088
	2.634596	2.465329
	2.644196	2.462769
	2.651875	2.463409
	2.659234	2.464049
	2.665634	2.464369
	2.671394	2.466288
	2.672674	2.466928
	2.672993	2.467248
	2.670434	2.465649
	2.665314	2.463409
	2.656355	2.459569
	2.643556	2.459889
	2.635876	2.459249
	2.620837	2.462129
	2.607078	2.466288
	2.591719	2.472688
	2.578920	2.481327
	2.570281	2.490927
	2.560042	2.501486
	2.551722	2.511405
	2.545643	2.518125
	2.541163	2.521324
	2.539563	2.522604
	2.537643	2.520365
	2.534444	2.514605
	2.534444	2.508525
	2.531564	2.500206
	2.530604	2.491887
	2.529644	2.486767
	2.529324	2.482607
	2.530924	2.481007
	2.531884	2.482607
	2.532524	2.488047
	2.536043	2.493487
	2.541803	2.502766
	2.545643	2.511405
	2.550762	2.521005
	2.551722	2.528684
	2.557482	2.534124
	2.613798	2.540843
	2.558762	2.543083
	2.558122	2.545003
	2.554922	2.546923
	2.551722	2.550762
	2.571241	2.555242
	2.539883	2.558442
	2.534124	2.566121
	2.530284	2.574441
	2.524204	2.583720
	2.521964	2.594919
	2.515885	2.602279
	2.510125	2.610918
	2.505966	2.617638
	2.501806	2.622437
	2.495726	2.625637
	2.491247	2.623397
	2.483247	2.620517
	2.481007	2.617318
	2.475248	2.612518
	2.468848	2.605478
	2.465649	2.598759
	2.464369	2.591719
	2.462449	2.585640
	2.469168	2.579560
	2.467248	2.573481
	2.470128	2.568361
	2.477168	2.564201
	2.481967	2.560362
	2.489967	2.555562
	2.500206	2.551082
	2.508845	2.545643
	2.515885	2.540523
	2.521964	2.535403
	2.528364	2.531564
	2.533164	2.523564
	2.535403	2.516525
	2.537643	2.511085
	2.543723	2.504686
	2.539243	2.499246
	2.540523	2.494126
	2.539883	2.488367
	2.539883	2.485487
	2.540203	2.483887
	2.540203	2.484207
	2.542123	2.480687
	2.544043	2.481327
	2.550442	2.481007
	2.545963	2.482927
	2.546923	2.484207
	2.549802	2.484847
	2.552042	2.484847
	2.552362	2.484207
	2.555242	2.491887
	2.552682	2.481007
	2.551402	2.478768
	2.559082	2.476208
	2.546283	2.473328
	2.544683	2.473008
	2.535723	2.471408
	2.528684	2.473008
	2.521005	2.473008
	2.514605	2.476848
	2.511405	2.480367
	2.537323	2.484847
	2.507885	2.488687
	2.490927	2.493167
	2.545963	2.496046
	2.551722	2.498606
	2.518445	2.501486
	2.488687	2.505326
	2.481327	2.577640
	2.500206	2.515565
	2.499246	2.525164
	2.489007	2.536363
	2.485807	2.550122
	2.522284	2.565161
	2.497646	2.580200
	2.510125	2.595239
	2.493487	2.608038
	2.497006	2.615398
	2.522604	2.621157
	2.503406	2.623717
	2.504366	2.623077
	2.505966	2.619877
	2.519085	2.615718
	2.520685	2.611878
	2.515565	2.608678
	2.514925	2.607718
	2.521005	2.605478
	2.518125	2.605798
	2.518445	2.607078
	2.509165	2.608998
	2.507565	2.610278
	2.503406	2.610278
	2.497966	2.609638
	2.493167	2.606438
	2.489007	2.601959
	2.489647	2.595239
	2.488047	2.589800
	2.485807	2.582440
	2.485807	2.573481
	2.491247	2.568041
	2.489967	2.565161
	2.493806	2.564201
	2.494126	2.565481
	2.499246	2.568681
	2.501166	2.573801
	2.503086	2.581160
	2.503406	2.585640
	2.510445	2.589800
	2.513645	2.590439
	2.516205	2.589800
	2.521324	2.583720
	2.530604	2.576360
	2.539563	2.565481
	2.547243	2.553642
	2.554282	2.542443
	2.566121	2.531884
	2.579240	2.521964
	2.588200	2.513325
	2.596519	2.506286
	2.607718	2.505326
	2.617957	2.496686
	2.622757	2.492847
	2.629157	2.489327
	2.633316	2.486447
	2.636516	2.481967
	2.639396	2.476208
	2.639076	2.471408
	2.637156	2.466288
	2.634916	2.461169
	2.630117	2.458609
	2.628197	2.458929
	2.616358	2.454769
	2.609318	2.458609
	2.603239	2.461169
	2.600999	2.465329
	2.586280	2.468208
	2.578600	2.471408
	2.572201	2.474288
	2.570281	2.475568
	2.561002	2.475248
	2.557482	2.474288
	2.553002	2.473008
	2.551082	2.470448
	2.547883	2.467568
	2.546283	2.467248
	2.545003	2.465649
	2.547563	2.466608
	2.543403	2.469168
	2.543403	2.471088
	2.544043	2.475248
	2.558442	2.477808
	2.545003	2.571881
	2.545323	2.484207
	2.545003	2.487087
	2.553962	2.486767
	2.543723	2.492207
	2.539243	2.488367
	2.537003	2.488687
	2.535083	2.488687
	2.531884	2.488367
	2.528044	2.488687
	2.525164	2.492527
	2.521644	2.495086
	2.531244	2.500526
	2.518125	2.505326
	2.516845	2.512045
	2.514925	2.515565
	2.513645	2.523244
	2.513005	2.525164
	2.512045	2.530284
	2.507885	2.530604
	2.505646	2.532844
	2.503406	2.531564
	2.500526	2.529964
	2.497646	2.528364
	2.495406	2.526764
	2.493167	2.526124
	2.491567	2.528044
	2.490287	2.529964
	2.490287	2.533484
	2.488687	2.539883
	2.490927	2.545323
	2.486447	2.553642
	2.485807	2.560362
	2.484527	2.565481
	2.484847	2.571241
	2.481967	2.575721
	2.480047	2.577960
	2.479408	2.579880
	2.480367	2.579880
	2.478768	2.579880
	2.480367	2.577960
	2.482927	2.572521
	2.485167	2.575721
	2.489647	2.572201
	2.494126	2.570601
	2.498926	2.567401
	2.500846	2.564521
	2.505646	2.559402
	2.510765	2.554282
	2.515245	2.548203
	2.520045	2.541483
	2.521005	2.534444
	2.522284	2.526124
	2.528044	2.516845
	2.524204	2.506606
	2.526124	2.495726
	2.528044	2.485807
	2.528364	2.476848
	2.529324	2.466928
	2.529644	2.459249
	2.530284	2.453489
	2.530924	2.461169
	2.530604	2.449330
	2.529324	2.450930
	2.531244	2.455089
	2.526444	2.461809
	2.524844	2.469168
	2.522604	2.479088
	2.519405	2.488367
	2.514285	2.496686
	2.509805	2.504366
	2.507246	2.509485
	2.504046	2.523884
	2.498926	2.519405
	2.494446	2.523884
	2.494126	2.529644
	2.490927	2.538283
	2.489327	2.547243
	2.490287	2.558442
	2.492207	2.569961
	2.492527	2.582120
	2.496686	2.592999
	2.497646	2.604198
	2.501806	2.609318
	2.503726	2.611878
	2.505326	2.611238
	2.505966	2.607398
	2.506606	2.600679
	2.506606	2.596519
	2.507885	2.588200
	2.513005	2.582440
	2.510445	2.577640
	2.512685	2.577320
	2.514605	2.577960
	2.517485	2.584360
	2.519405	2.590759
	2.520685	2.597479
	2.522604	2.604198
	2.519725	2.609638
	2.517165	2.609638
	2.513965	2.607398
	2.510765	2.602919
	2.505966	2.593959
	2.500526	2.582440
	2.498286	2.570281
	2.489007	2.559402
	2.485807	2.550762
	2.483567	2.544363
	2.482287	2.537963
	2.482607	2.534764
	2.483567	2.534444
	2.487407	2.533484
	2.493167	2.530924
	2.498286	2.528684
	2.504686	2.522284
	2.508205	2.515885
	2.514925	2.508525
	2.521324	2.498606
	2.527084	2.490607
	2.535403	2.483247
	2.538923	2.478768
	2.545003	2.489967
	2.552682	2.481647
	2.560362	2.487727
	2.567401	2.497646
	2.572201	2.508525
	2.576680	2.518765
	2.580520	2.527724
	2.589480	2.534124
	2.580520	2.537323
	2.578920	2.537963
	2.574121	2.536683
	2.566121	2.532204
	2.558442	2.528364
	2.549162	2.526124
	2.542763	2.523564
	2.532524	2.524524
	2.524844	2.527084
	2.518445	2.531884
	2.513005	2.535403
	2.509485	2.541483
	2.508525	2.545963
	2.506606	2.549162
	2.507885	2.547563
	2.511725	2.545963
	2.513325	2.542123
	2.517165	2.534444
	2.519405	2.527724
	2.524844	2.522284
	2.526124	2.516845
	2.528044	2.512045
	2.530284	2.510765
	2.529964	2.511405
	2.531244	2.511085
	2.531244	2.513965
	2.530924	2.516205
	2.531244	2.517165
	2.531244	2.519405
	2.532524	2.521964
	2.533484	2.520045
	2.532524	2.519085
	2.532524	2.634276
	2.531564	2.515885
	2.532524	2.513965
	2.531244	2.513005
	2.529324	2.512365
	2.527724	2.512685
	2.526444	2.512045
	2.525164	2.513965
	2.522604	2.514925
	2.522604	2.514285
	2.521324	2.513645
	2.520365	2.512365
	2.517485	2.510445
	2.513965	2.532844
	2.512685	2.510445
	2.509805	2.510765
	2.505646	2.512045
	2.500846	2.513325
	2.496686	2.515565
	2.493806	2.516525
	2.492207	2.517805
	2.491567	2.518445
	2.491887	2.518125
	2.493167	2.515885
	2.494446	2.513965
	2.498926	2.510445
	2.502126	2.505326
	2.506606	2.498286
	2.510765	2.493167
	2.515565	2.497646
	2.520685	2.481327
	2.523244	2.480047
	2.527724	2.478128
	2.529644	2.477808
	2.531564	2.477488
	2.534444	2.479088
	2.536363	2.484527
	2.537003	2.490927
	2.537323	2.496686
	2.536683	2.506606
	2.533484	2.509165
	2.530924	2.514605
	2.526444	2.520685
	2.524844	2.527084
	2.519085	2.531564
	2.514605	2.541803
	2.508525	2.545003
	2.504046	2.552682
	2.502766	2.576680
	2.497646	2.567721
	2.495726	2.576041
	2.492847	2.584680
	2.491567	2.592359
	2.491247	2.600679
	2.490927	2.607078
	2.491567	2.609638
	2.492207	2.612198
	2.493487	2.611558
	2.495406	2.609318
	2.496046	2.606118
	2.497326	2.600039
	2.497966	2.592999
	2.500846	2.587560
	2.501486	2.585000
	2.504366	2.579560
	2.504686	2.576041
	2.506926	2.573161
	2.505646	2.569321
	2.506606	2.569001
	2.507885	2.565481
	2.507885	2.564201
	2.506926	2.559082
	2.507246	2.554602
	2.506926	2.547883
	2.506606	2.541163
	2.508205	2.533484
	2.508205	2.525804
	2.510445	2.519085
	2.512365	2.513645
	2.515885	2.509805
	2.521005	2.505326
	2.525164	2.502766
	2.530924	2.499566
	2.533484	2.495726
	2.538603	2.491567
	2.541803	2.487087
	2.546283	2.481647
	2.549162	2.476848
	2.549162	2.472048
	2.550762	2.465649
	2.551722	2.460849
	2.550762	2.458289
	2.550762	2.455409
	2.550442	2.455089
	2.551082	2.456689
	2.550762	2.459889
	2.548523	2.463729
	2.548842	2.469168
	2.547243	2.474928
	2.545323	2.479728
	2.540843	2.487087
	2.537323	2.491887
	2.535723	2.497326
	2.531564	2.503726
	2.527724	2.508845
	2.521964	2.514285
	2.517805	2.521644
	2.514605	2.527084
	2.510765	2.534444
	2.517805	2.539883
	2.504366	2.545323
	2.501806	2.551722
	2.507246	2.557802
	2.499246	2.561962
	2.500526	2.563881
	2.499246	2.566761
	2.498606	2.568681
	2.499246	2.574441
	2.500206	2.568041
	2.501166	2.567081
	2.503406	2.581160
	2.505646	2.567081
	2.507885	2.562921
	2.512045	2.561642
	2.516205	2.556842
	2.519725	2.553002
	2.523564	2.547563
	2.525804	2.540843
	2.529004	2.535083
	2.532844	2.529324
	2.534764	2.522604
	2.536043	2.515885
	2.533804	2.511725
	2.533164	2.505966
	2.532844	2.501806
	2.559082	2.498606
	2.527404	2.496366
	2.524844	2.505966
	2.521964	2.489327
	2.520685	2.486447
	2.518125	2.487407
	2.514925	2.483887
	2.513005	2.482287
	2.509805	2.482287
	2.506926	2.480047
	2.503406	2.480687
	2.499246	2.482927
	2.496046	2.484847
	2.491887	2.488687
	2.489327	2.493487
	2.486127	2.498606
	2.482607	2.504686
	2.547243	2.512045
	2.481647	2.517485
	2.482607	2.702111
	2.483567	2.527724
	2.484207	2.529004
	2.485807	2.532844
	2.486447	2.530604
	2.489967	2.528364
	2.492847	2.527724
	2.496686	2.527724
	2.499566	2.525484
	2.504686	2.524204
	2.511405	2.523884
	2.518125	2.524524
	2.532844	2.525804
	2.527084	2.527404
	2.534764	2.546923
	2.541163	2.528044
	2.544683	2.527724
	2.546923	2.529324
	2.548842	2.528684
	2.549162	2.530284
	2.547243	2.532524
	2.544683	2.535403
	2.543083	2.538923
	2.541483	2.545323
	2.539563	2.551722
	2.539883	2.581160
	2.540843	2.567721
	2.539563	2.573481
	2.539883	2.580840
	2.541483	2.586600
	2.542123	2.589800
	2.543083	2.591719
	2.544363	2.598439
	2.544043	2.595239
	2.541803	2.593319
	2.539563	2.591719
	2.535403	2.608358
	2.534124	2.586280
	2.530284	2.582120
	2.526764	2.577320
	2.523244	2.571881
	2.527084	2.564841
	2.527724	2.558122
	2.531564	2.551402
	2.537003	2.563561
	2.545963	2.540203
	2.550122	2.533164
	2.554602	2.528684
	2.559722	2.523564
	2.563561	2.520365
	2.563561	2.517165
	2.566121	2.514605
	2.565481	2.621157
	2.585640	2.510765
	2.559402	2.510445
	2.554922	2.510445
	2.550442	2.507246
	2.546923	2.505646
	2.541163	2.504686
	2.537643	2.503406
	2.531244	2.502766
	2.543083	2.501806
	2.525484	2.500526
	2.520365	2.502766
	2.517165	2.498606
	2.515565	2.498606
	2.513645	2.499886
	2.512365	2.501166
	2.511725	2.503086
	2.518445	2.506926
	2.512365	2.510125
	2.514605	2.517805
	2.516205	2.521005
	2.517805	2.526444
	2.520365	2.532844
	2.521324	2.537963
	2.521964	2.706911
	2.524204	2.553322
	2.522924	2.561642
	2.520685	2.572201
	2.519725	2.580200
	2.518125	2.588200
	2.549482	2.595879
	2.514605	2.600359
	2.512365	2.605798
	2.508525	2.605158
	2.506606	2.606438
	2.505966	2.601319
	2.504686	2.595879
	2.502766	2.721950
	2.502766	2.581480
	2.501486	2.576680
	2.500206	2.577320
	2.500206	2.563241
	2.499566	2.608678
	2.575081	2.622117
	2.499246	2.612198
	2.499886	2.625957
	2.500846	2.679713
	2.501806	2.626277
	2.502446	2.677153
	2.503086	2.609958
	2.503726	2.531564
	2.505966	2.602919
	2.506286	2.584360
	2.507885	2.531884
	2.508525	2.530284
	2.510125	2.509165
	2.510445	2.511085
	2.510765	2.505326
	2.511725	2.513965
	2.512365	2.511725
	2.514605	2.510445
	2.569641	2.510765
	2.521964	2.498926
	2.529324	2.494126
	2.531244	2.500206
	2.535723	2.501486
	2.629477	2.495086
	2.545003	2.491247
	2.546283	2.491887
	2.546283	2.485167
	2.546603	2.488047
	2.551722	2.483567
	2.542123	2.484207
	2.539243	2.484207
	2.537323	2.488367
	2.534444	2.490287
	2.531244	2.491887
	2.530924	2.496366
	2.530284	2.500206
	2.531244	2.504046
	2.531244	2.506286
	2.609318	2.509805
	2.531564	2.508205
	2.532204	2.506926
	2.531564	2.506606
	2.529964	2.506926
	2.527084	2.503086
	2.524524	2.502126
	2.523564	2.502126
	2.521644	2.500846
	2.521964	2.503406
	2.542443	2.504046
	2.523564	2.505646
	2.526444	2.507565
	2.529324	2.511405
	2.533484	2.511405
	2.550762	2.515885
	2.541163	2.516845
	2.542123	2.521005
	2.544683	2.535083
	2.545963	2.518125
	2.548842	2.537003
	2.543403	2.531564
	2.542123	2.546603
	2.541483	2.557482
	2.539243	2.596199
	2.538283	2.524524
	2.537323	2.516845
	2.536043	2.559082
	2.535083	2.521005
	2.534764	2.530284
	2.535083	2.524204
	2.533484	2.522924
	2.531564	2.526764
	2.529964	2.521644
	2.526764	2.533164
	2.524204	2.518445
	2.520365	2.517165
	2.515885	2.517485
	2.513325	2.514285
	2.508205	2.521964
	2.503406	2.516205
	2.501806	2.514285
	2.504686	2.518125
	2.495726	2.519725
	2.493487	2.519725
	2.491887	2.522284
	2.492207	2.521324
	2.491567	2.524844
	2.491247	2.523564
	2.489967	2.524844
	2.488687	2.525164
	2.487407	2.527404
	2.488367	2.525804
	2.486127	2.527724
	2.493806	2.533484
	2.482287	2.534764
	2.479088	2.540523
	2.477488	2.544363
	2.474928	2.545963
	2.475248	2.551402
	2.468848	2.553962
	2.468848	2.557482
	2.465968	2.556522
	2.466288	2.555562
	2.465968	2.556202
	2.466288	2.555242
	2.504686	2.576360
	2.468848	2.551722
	2.469808	2.551082
	2.473008	2.549482
	2.476528	2.548203
	2.480367	2.546603
	2.483247	2.545003
	2.485807	2.544683
	2.490927	2.539243
	2.494126	2.545323
	2.498286	2.530284
	2.500206	2.523884
	2.509485	2.517165
	2.508845	2.509805
	2.514605	2.506286
	2.518125	2.500526
	2.521005	2.498286
	2.525804	2.495406
	2.529324	2.495726
	2.544043	2.503726
	2.537323	2.497006
	2.539243	2.498606
	2.539883	2.497646
	2.541803	2.498926
	2.540843	2.497646
	2.539563	2.497646
	2.546283	2.499246
	2.536043	2.497006
	2.533804	2.498606
	2.531564	2.503086
	2.525804	2.509805
	2.524204	2.516205
	2.520045	2.524204
	2.531564	2.533804
	2.514605	2.539883
	2.513325	2.550762
	2.511405	2.550762
	2.509165	2.553322
	2.512045	2.552682
	2.511725	2.552042
	2.518445	2.552362
	2.514605	2.555562
	2.516525	2.561322
	2.520365	2.567081
	2.522284	2.577320
	2.526444	2.585320
	2.528684	2.598119
	2.532204	2.608038
	2.533164	2.610918
	2.535403	2.609958
	2.537963	2.605158
	2.538603	2.595559
	2.540843	2.580840
	2.543083	2.566441
	2.545003	2.549802
	2.545643	2.532204
	2.554922	2.518445
	2.548523	2.507565
	2.550442	2.513325
	2.552042	2.495406
	2.554282	2.492847
	2.553642	2.491247
	2.554282	2.489647
	2.556522	2.489007
	2.552042	2.483887
	2.560682	2.480047
	2.545643	2.473968
	2.542443	2.466928
	2.535403	2.460849
	2.543083	2.455409
	2.550122	2.481007
	2.528044	2.451890
	2.531244	2.452529
	2.569641	2.456049
	2.518125	2.460209
	2.574121	2.465649
	2.606758	2.471728
	2.571241	2.474608
	2.582120	2.479408
	2.578600	2.483247
	2.539243	2.484527
	2.523244	2.484847
	2.540843	2.485807
	2.526764	2.486447
	2.547243	2.488047
	2.547243	2.513645
	2.548842	2.496046
	2.536043	2.500206
	2.527084	2.507565
	2.532524	2.513005
	2.522924	2.521005
	2.529004	2.527404
	2.514285	2.532524
	2.529644	2.536683
	2.522604	2.549482
	2.523244	2.543403
	2.525484	2.545003
	2.521964	2.545323
	2.523244	2.545323
	2.521324	2.543083
	2.522604	2.540203
	2.518765	2.537003
	2.520045	2.534444
	2.520045	2.529644
	2.524204	2.526764
	2.529324	2.537963
	2.532204	2.516845
	2.538603	2.511725
	2.544363	2.507246
	2.549162	2.502446
	2.551402	2.495726
	2.560042	2.492527
	2.561642	2.489007
	2.568041	2.486127
	2.569001	2.484847
	2.572521	2.483247
	2.570921	2.500526
	2.572201	2.482287
	2.572841	2.483567
	2.571241	2.485167
	2.570601	2.485487
	2.567721	2.486127
	2.569321	2.486127
	2.567401	2.487407
	2.569321	2.486447
	2.566121	2.486447
	2.567721	2.487407
	2.564201	2.487727
	2.585320	2.488047
	2.560362	2.556522
	2.581480	2.491567
	2.561962	2.493487
	2.569001	2.494766
	2.573481	2.495726
	2.579240	2.496686
	2.553322	2.497966
	2.534444	2.499566
	2.539243	2.500206
	2.529644	2.503406
	2.532524	2.507885
	2.523564	2.513325
	2.529644	2.518765
	2.513645	2.544363
	2.517485	2.537643
	2.501486	2.548523
	2.506606	2.559722
	2.489007	2.569001
	2.488047	2.576360
	2.478128	2.583400
	2.467248	2.586600
	2.463729	2.588520
	2.459569	2.587240
	2.456369	2.588840
	2.456689	2.586920
	2.455409	2.587240
	2.459889	2.588200
	2.458929	2.586600
	2.459569	2.602919
	2.463409	2.588840
	2.464369	2.588840
	2.469488	2.587880
	2.468528	2.585320
	2.480047	2.581480
	2.473328	2.577320
	2.479408	2.569321
	2.473328	2.561322
	2.471408	2.552682
	2.473008	2.544683
	2.472048	2.539243
	2.471088	2.533804
	2.470448	2.531244
	2.473648	2.529324
	2.472688	2.533164
	2.473648	2.531564
	2.472368	2.553002
	2.475248	2.534764
	2.476848	2.534124
	2.478128	2.532844
	2.478128	2.532204
	2.480367	2.530284
	2.480367	2.528044
	2.575401	2.525804
	2.480687	2.524844
	2.520045	2.523564
	2.479728	2.524204
	2.492527	2.527084
	2.480047	2.531244
	2.481647	2.534764
	2.480047	2.537643
	2.479728	2.541483
	2.478768	2.542763
	2.484207	2.542763
	2.486767	2.540523
	2.490927	2.537963
	2.494126	2.534444
	2.500846	2.529964
	2.507565	2.525164
	2.513645	2.525164
	2.522604	2.516845
	2.528044	2.563881
	2.535723	2.511085
	2.542123	2.508845
	2.549162	2.508525
	2.553002	2.505646
	2.557482	2.503406
	2.559082	2.502446
	2.566441	2.498606
	2.565481	2.493167
	2.572521	2.488367
	2.568041	2.483247
	2.577960	2.477168
	2.571241	2.471728
	2.607398	2.466928
	2.574441	2.462449
	2.608358	2.460849
	2.576360	2.457969
	2.613798	2.457969
	2.577320	2.459889
	2.667554	2.460849
	2.575401	2.462769
	2.579560	2.464369
	2.571241	2.465329
	2.566761	2.468848
	2.561642	2.472368
	2.557482	2.473648
	2.551722	2.479408
	2.544683	2.484527
	2.537643	2.492527
	2.529644	2.503406
	2.525804	2.514925
	2.519085	2.527724
	2.513645	2.540843
	2.507885	2.552682
	2.505966	2.563881
	2.503086	2.571241
	2.501166	2.577000
	2.500526	2.577640
	2.501806	2.577000
	2.501806	2.571881
	2.504686	2.566121
	2.506606	2.557482
	2.508205	2.549162
	2.511085	2.542763
	2.514285	2.535403
	2.515565	2.530284
	2.518445	2.525164
	2.522924	2.521005
	2.527404	2.518445
	2.529644	2.515245
	2.534444	2.511405
	2.539243	2.509805
	2.542123	2.507246
	2.547243	2.504366
	2.549802	2.502446
	2.552682	2.500526
	2.555562	2.496686
	2.557162	2.496366
	2.557802	2.494446
	2.557802	2.494126
	2.558122	2.495406
	2.557802	2.495086
	2.557162	2.495726
	2.557482	2.497326
	2.557802	2.498926
	2.558762	2.500846
	2.558762	2.502126
	2.559082	2.505646
	2.559082	2.507885
	2.559722	2.510445
	2.559082	2.512685
	2.617957	2.515245
	2.555882	2.518445
	2.611878	2.521324
	2.552042	2.523884
	2.570601	2.526124
	2.544683	2.529964
	2.555562	2.530604
	2.535723	2.532204
	2.539243	2.534764
	2.528684	2.535083
	2.525484	2.537003
	2.519725	2.537003
	2.516525	2.538603
	2.510125	2.537963
	2.507246	2.539243
	2.502126	2.538283
	2.497646	2.538923
	2.491887	2.538283
	2.491247	2.537003
	2.486127	2.534444
	2.484207	2.535083
	2.481967	2.532844
	2.480687	2.532204
	2.479728	2.664994
	2.480367	2.529004
	2.480687	2.577640
	2.484207	2.523884
	2.486447	2.526124
	2.490287	2.519405
	2.494446	2.521005
	2.500206	2.514285
	2.506286	2.515565
	2.514925	2.513325
	2.516845	2.512365
	2.528044	2.512685
	2.529644	2.513965
	2.534124	2.515885
	2.537963	2.516525
	2.540203	2.519405
	2.543403	2.522924
	2.546283	2.527724
	2.708511	2.530604
	2.548842	2.534764
	2.553642	2.541483
	2.549482	2.546283
	2.552362	2.550762
	2.548842	2.556522
	2.549482	2.561642
	2.547243	2.566761
	2.545963	2.568041
	2.542443	2.839701
	2.540523	2.568041
	2.541163	2.569001
	2.539563	2.559402
	2.537963	2.559722
	2.539883	2.545643
	2.538923	2.539243
	2.541803	2.529644
	2.541803	2.521644
	2.543083	2.516845
	2.543083	2.509485
	2.545643	2.505326
	2.544043	2.502766
	2.545643	2.501166
	2.575081	2.498926
	2.541163	2.498926
	2.548203	2.497006
	2.537963	2.494766
	2.534764	2.495086
	2.529644	2.494766
	2.525804	2.493167
	2.518765	2.516845
	2.516205	2.495726
	2.509485	2.500206
	2.505006	2.503406
	2.499246	2.509485
	2.497006	2.516525
	2.494126	2.522284
	2.491247	2.526764
	2.489327	2.530284
	2.490607	2.534124
	2.504686	2.537003
	2.492527	2.538923
	2.498606	2.540203
	2.496686	2.541163
	2.498286	2.541483
	2.497326	2.566441
	2.498606	2.546603
	2.497966	2.551722
	2.497966	2.552682
	2.495086	2.558122
	2.492527	2.561322
	2.490287	2.564841
	2.488367	2.566121
	2.485807	2.566121
	2.486767	2.564841
	2.490927	2.559722
	2.486767	2.552682
	2.488367	2.544043
	2.491887	2.558122
	2.496686	2.524524
	2.500846	2.526444
	2.505966	2.504046
	2.513005	2.493487
	2.521324	2.485167
	2.529644	2.476528
	2.536683	2.468848
	2.572841	2.460529
	2.547563	2.455089
	2.554282	2.449010
	2.556842	2.562282
	2.556202	2.441330
	2.555562	2.442610
	2.553962	2.437491
	2.549482	2.439410
	2.543723	2.442610
	2.538283	2.449010
	2.533164	2.457009
	2.568041	2.466288
	2.519085	2.474288
	2.512045	2.483567
	2.506606	2.607398
	2.504686	2.498926
	2.499886	2.509485
	2.496046	2.507885
	2.493487	2.509485
	2.491247	2.509805
	2.489967	2.508845
	2.489647	2.506286
	2.493167	2.505006
	2.489647	2.503726
	2.489967	2.501806
	2.492207	2.507885
	2.495726	2.496366
	2.499886	2.495726
	2.504046	2.491887
	2.505326	2.489007
	2.510125	2.486447
	2.529004	2.482287
	2.519725	2.477168
	2.524204	2.473648
	2.528364	2.490287
	2.534444	2.465968
	2.542443	2.463409
	2.550122	2.459249
	2.559082	2.457649
	2.567401	2.457329
	2.642916	2.457329
	2.584680	2.457649
	2.591399	2.460209
	2.597799	2.467888
	2.601959	2.464049
	2.606758	2.467888
	2.608358	2.468848
	2.608998	2.470768
	2.607718	2.473968
	2.621797	2.478128
	2.606118	2.481647
	2.603239	2.486127
	2.600999	2.501486
	2.598439	2.498286
	2.598119	2.506606
	2.594279	2.514605
	2.591399	2.522604
	2.587560	2.530924
	2.587560	2.537963
	2.582760	2.556842
	2.577960	2.549162
	2.573161	2.554922
	2.569001	2.555242
	2.564841	2.556202
	2.559722	2.556842
	2.563561	2.556842
	2.547563	2.556842
	2.542123	2.558442
	2.534124	2.563561
	2.530924	2.563561
	2.524844	2.566761
	2.519725	2.569641
	2.516845	2.575081
	2.511085	2.578280
	2.518445	2.580840
	2.505646	2.582120
	2.503726	2.581480
	2.501486	2.580200
	2.498606	2.575721
	2.497326	2.572201
	2.495726	2.568041
	2.529964	2.563241
	2.494446	2.611878
	2.493167	2.556522
	2.494126	2.555882
	2.493167	2.552682
	2.493806	2.552362
	2.495086	2.550122
	2.610918	2.548842
	2.497646	2.546283
	2.501166	2.543403
	2.500846	2.573801
	2.499566	2.538603
	2.498606	2.533804
	2.497646	2.533164
	2.554282	2.531884
	2.493167	2.532524
	2.491567	2.531244
	2.489007	2.535083
	2.485807	2.534124
	2.485487	2.535723
	2.484847	2.536043
	2.532844	2.536683
	2.487087	2.768027
	2.490287	2.532204
	2.493806	2.528364
	2.497966	2.521324
	2.503086	2.514925
	2.506606	2.510125
	2.546603	2.505326
	2.513005	2.525804
	2.516205	2.496046
	2.517165	2.493806
	2.517805	2.492207
	2.518445	2.492847
	2.517805	2.494446
	2.523244	2.497006
	2.518445	2.510445
	2.519085	2.503406
	2.516845	2.506606
	2.515565	2.508845
	2.689312	2.511725
	2.511405	2.561002
	2.513005	2.516525
	2.503726	2.519725
	2.498606	2.521644
	2.494766	2.523884
	2.489327	2.525484
	2.493167	2.529004
	2.485167	2.546923
	2.482287	2.531564
	2.481327	2.533804
	2.480687	2.535723
	2.524844	2.535723
	2.480367	2.642916
	2.484847	2.536363
	2.483247	2.535083
	2.486447	2.532844
	2.487727	2.531884
	2.492527	2.528684
	2.503726	2.526764
	2.507885	2.529324
	2.518125	2.519405
	2.526764	2.514605
	2.541483	2.509485
	2.578600	2.505646
	2.573481	2.524844
	2.593319	2.493167
	2.601319	2.488687
	2.618277	2.482607
	2.814423	2.479088
	2.646755	2.535723
	2.658595	2.470768
	2.663074	2.469808
	2.668514	2.468208
	2.670434	2.467888
	2.669474	2.622437
	2.668514	2.470448
	2.658595	2.516205
	2.654755	2.477488
	2.637476	2.526764
	2.624997	2.528044
	2.616358	2.493806
	2.601639	2.510765
	2.587240	2.507885
	2.575721	2.523884
	2.565161	2.534124
	2.561322	2.527724
	2.551722	2.534444
	2.546603	2.542443
	2.541803	2.546283
	2.539243	2.581480
	2.541163	2.543403
	2.538283	2.545643
	2.538603	2.540203
	2.539243	2.551402
	2.540523	2.549802
	2.545643	2.535723
	2.544683	2.535083
	2.547883	2.539563
	2.550122	2.529004
	2.552682	2.539883
	2.557802	2.529004
	2.557482	2.516205
	2.561002	2.515885
	2.562282	2.512045
	2.562282	2.515245
	2.567401	2.608358
	2.560042	2.504686
	2.557482	2.509165
	2.555242	2.504046
	2.550762	2.511405
	2.548523	2.504686
	2.541803	2.498926
	2.536043	2.497646
	2.530924	2.498606
	2.524844	2.501806
	2.521644	2.506926
	2.516205	2.497646
	2.511085	2.501166
	2.507885	2.499566
	2.503726	2.502766
	2.502126	2.503406
	2.498286	2.502766
	2.495406	2.504686
	2.514285	2.503086
	2.493806	2.502446
	2.495726	2.501806
	2.497006	2.497646
	2.500526	2.497646
	2.514285	2.489967
	2.509805	2.485167
	2.512045	2.482287
	2.519405	2.478448
	2.523884	2.476848
	2.531564	2.473648
	2.531564	2.473968
	2.534444	2.475248
	2.537003	2.478128
	2.539243	2.482287
	2.539563	2.484847
	2.538923	2.489647
	2.537003	2.497006
	2.539243	2.500846
	2.530604	2.504366
	2.528044	2.508845
	2.523884	2.511725
	2.521005	2.514605
	2.516205	2.516525
	2.511725	2.519085
	2.507565	2.521644
	2.505326	2.525164
	2.503406	2.529964
	2.501486	2.531564
	2.503726	2.535723
	2.507246	2.538923
	2.530604	2.540523
	2.515565	2.542763
	2.521005	2.543083
	2.528364	2.543403
	2.536363	2.542123
	2.541163	2.539243
	2.546283	2.536363
	2.551722	2.537003
	2.571881	2.534444
	2.557482	2.533484
	2.559402	2.534444
	2.559402	2.534444
	2.559722	2.537003
	2.560682	2.538923
	2.560042	2.539883
	2.559722	2.542443
	2.559402	2.543723
	2.559082	2.545643
	2.559082	2.546923
	2.557482	2.547883
	2.556202	2.547883
	2.560042	2.549162
	2.552362	2.548203
	2.548203	2.548203
	2.544683	2.546283
	2.541163	2.546283
	2.537643	2.545003
	2.535083	2.544043
	2.527084	2.543083
	2.523884	2.543723
	2.518765	2.543723
	2.514285	2.545643
	2.527084	2.545643
	2.506926	2.546283
	2.503726	2.546923
	2.504046	2.546603
	2.499566	2.546923
	2.499886	2.545643
	2.495086	2.544683
	2.493487	2.542763
	2.505966	2.540843
	2.490287	2.538603
	2.489647	2.535083
	2.490287	2.531884
	2.489327	2.529644
	2.490287	2.526124
	2.490607	2.519725
	2.492847	2.518125
	2.499566	2.516205
	2.498606	2.512685
	2.500526	2.509805
	2.521005	2.507246
	2.505646	2.503406
	2.509165	2.501806
	2.509165	2.498926
	2.511405	2.497966
	2.513005	2.497326
	2.511725	2.496686
	2.511405	2.497326
	2.520365	2.498286
	2.511085	2.499246
	2.512045	2.498606
	2.522604	2.500526
	2.511405	2.499886
	2.513005	2.499246
	2.610598	2.500206
	2.517165	2.500206
	2.519085	2.498606
	2.520685	2.498606
	2.522604	2.498926
	2.534444	2.497966
	2.526764	2.498606
	2.526124	2.498606
	2.531244	2.497646
	2.528364	2.496366
	2.527404	2.495726
	2.538603	2.493487
	2.529644	2.491567
	2.530284	2.488367
	2.671714	2.487407
	2.534764	2.485167
	2.540203	2.484207
	2.559082	2.484847
	2.528044	2.485807
	2.531244	2.488687
	2.529004	2.491247
	2.531564	2.493806
	2.529964	2.498286
	2.585640	2.499566
	2.579880	2.502446
	2.531244	2.503086
	2.536043	2.504366
	2.527404	2.505966
	2.532844	2.507246
	2.530284	2.507246
	2.527404	2.509165
	2.522284	2.511085
	2.521005	2.513005
	2.518765	2.514605
	2.527084	2.517805
	2.520365	2.520685
	2.517485	2.522604
	2.521324	2.524524
	2.518445	2.527404
	2.517485	2.527724
	2.522604	2.529324
	2.518445	2.529964
	2.515565	2.528684
	2.518765	2.528364
	2.521644	2.527084
	2.520365	2.525804
	2.521005	2.523884
	2.521005	2.524204
	2.520685	2.524844
	2.518445	2.618597
	2.519405	2.525164
	2.519725	2.526764
	2.517485	2.527404
	2.517485	2.529324
	2.516525	2.528684
	2.517165	2.526124
	2.517165	2.523884
	2.516845	2.521324
	2.519405	2.518445
	2.518125	2.517485
	2.519405	2.515565
	2.518765	2.514605
	2.517805	2.515245
	2.517485	2.515245
	2.518125	2.515565
	2.517165	2.516525
	2.519405	2.515565
	2.519405	2.514605
	2.518765	2.514605
	2.520365	2.513965
	2.521324	2.511725
	2.522604	2.508845
	2.521964	2.585640
	2.524204	2.538603
	2.525164	2.506286
	2.527724	2.504686
	2.528044	2.535723
	2.532524	2.504366
	2.534764	2.504046
	2.537963	2.618917
	2.539243	2.501166
	2.543083	2.501166
	2.544363	2.516525
	2.543723	2.500846
	2.544683	2.511085
	2.542763	2.530924
	2.540203	2.503726
	2.537963	2.513965
	2.536363	2.526764
	2.533484	2.507565
	2.531564	2.595559
	2.528364	2.518445
	2.525164	2.557482
	2.524524	2.520045
	2.521644	2.528684
	2.519725	2.523884
	2.517165	2.531244
	2.514925	2.531244
	2.512365	2.624997
	2.511725	2.526764
	2.510765	2.523884
	2.510445	2.520685
	2.509805	2.528684
	2.510125	2.523244
	2.511405	2.515245
	2.510125	2.548203
	2.509805	2.522604
	2.509805	2.636836
	2.510765	2.530284
	2.512045	2.528364
	2.513645	2.887698
	2.516525	2.534124
	2.519085	2.534124
	2.521005	2.708191
	2.523564	2.527404
	2.524204	2.524524
	2.524844	2.582440
	2.524844	2.522924
	2.523884	2.517485
	2.524844	2.527724
	2.523244	2.515885
	2.522604	2.513005
	2.521644	2.519085
	2.522924	2.516845
	2.524204	2.513325
	2.524524	2.516525
	2.524524	2.509165
	2.526764	2.501486
	2.525484	2.496686
	2.525164	2.492847
	2.526124	2.489327
	2.525484	2.485807
	2.526124	2.488687
	2.527084	2.481007
	2.528044	2.483247
	2.529644	2.487087
	2.531564	2.483567
	2.532524	2.484207
	2.530604	2.510125
	2.531244	2.487407
	2.530284	2.488687
	2.527724	2.508205
	2.526124	2.493167
	2.523244	2.496366
	2.521324	2.505966
	2.518765	2.506606
	2.518125	2.509805
	2.516525	2.515565
	2.516205	2.517805
	2.516845	2.517805
	2.518125	2.521005
	2.518125	2.521324
	2.519405	2.521005
	2.519725	2.522284
	2.518765	2.555562
	2.518125	2.527084
	2.517165	2.531244
	2.518445	2.541483
	2.519405	2.537323
	2.519725	2.540523
	2.520365	2.560362
	2.521964	2.542443
	2.521964	2.542123
	2.524204	2.573481
	2.525804	2.540203
	2.527084	2.537323
	2.527084	2.536043
	2.528684	2.611558
	2.528364	2.537643
	2.528044	2.539883
	2.528044	2.556202
	2.527724	2.543403
	2.528044	2.544043
	2.526444	2.550442
	2.525804	2.543723
	2.525484	2.539883
	2.525164	2.539243
	2.523244	2.689952
	2.519405	2.531884
	2.516205	2.532204
	2.513325	2.543403
	2.510445	2.533804
	2.509485	2.535723
	2.507246	2.537963
	2.504366	2.539563
	2.504366	2.540843
	2.504366	2.546283
	2.505006	2.601319
	2.506286	2.537963
	2.507565	2.536363
	2.509805	2.538923
	2.510765	2.531884
	2.511085	2.531884
	2.511405	2.536683
	2.513325	2.531884
	2.513325	2.532524
	2.512685	2.535083
	2.513325	2.675873
	2.515885	2.532524
	2.517485	2.534124
	2.519725	2.534124
	2.522924	2.525804
	2.524204	2.520685
	2.527404	2.520365
	2.530924	2.518125
	2.531884	2.517165
	2.532524	2.517485
	2.533484	2.531884
	2.533804	2.518125
	2.535403	2.522284
	2.535723	2.518445
	2.537323	2.514605
	2.537003	2.513965
	2.537963	2.513645
	2.538923	2.546923
	2.538603	2.509485
	2.538603	2.511085
	2.539563	2.514925
	2.537003	2.516845
	2.536683	2.519725
	2.537003	2.523564
	2.537003	2.525804
	2.537003	2.526764
	2.537643	2.529004
	2.538283	2.526444
	2.537963	2.521324
	2.538603	2.535083
	2.539243	2.515885
	2.540523	2.525164
	2.541163	2.513325
	2.541803	2.514605
	2.541803	2.522284
	2.542123	2.521324
	2.541803	2.525804
	2.542123	2.529644
	2.540843	2.650275
	2.538603	2.536363
	2.536363	2.534764
	2.531884	2.534764
	2.529324	2.529324
	2.526124	2.526444
	2.525164	2.522284
	2.522284	2.565801
	2.518445	2.521005
	2.517485	2.521005
	2.515245	2.523884
	2.513645	2.525484
	2.512365	2.527084
	2.513645	2.529004
	2.513005	2.541483
	2.513645	2.529324
	2.513965	2.525164
	2.515885	2.520045
	2.519085	2.511725
	2.521005	2.506286
	2.524204	2.497646
	2.527404	2.501486
	2.530284	2.491887
	2.534764	2.491887
	2.537963	2.496686
	2.540843	2.503086
	2.543083	2.511085
	2.545323	2.516845
	2.546923	2.525164
	2.545003	2.526764
	2.543723	2.526124
	2.542763	2.524204
	2.539563	2.531564
	2.537003	2.513645
	2.532844	2.507885
	2.531244	2.504046
	2.529964	2.501486
	2.529004	2.502446
	2.530284	2.504686
	2.529964	2.513005
	2.531564	2.516205
	2.532524	2.520685
	2.532204	2.524844
	2.532204	2.534764
	2.529324	2.522924
	2.529324	2.518445
	2.529004	2.511085
	2.527084	2.560362
	2.526444	2.498286
	2.527084	2.492527
	2.529644	2.493487
	2.530604	2.589800
	2.532844	2.501486
	2.533804	2.506606
	2.580840	2.516205
	2.533164	2.521005
	2.532204	2.522604
	2.560042	2.522604
	2.524524	2.522924
	2.582440	2.511725
	2.517485	2.505326
	2.516525	2.498926
	2.546603	2.507565
	2.523244	2.491887
	2.513005	2.493487
	2.554602	2.496686
	2.530284	2.684513
	2.527084	2.507885
	2.514925	2.514285
	2.536683	2.519725
	2.568361	2.668834
	2.537323	2.518445
	2.517485	2.514605
	2.539243	2.508525
	2.524524	2.498606
	2.555562	2.489007
	2.550442	2.483567
	2.535723	2.483887
	2.623717	2.478768
	2.610278	2.483247
	2.562921	2.489967
	2.550122	2.505326
	2.556522	2.508845
	2.572521	2.516845
	2.561002	2.523884
	2.595879	2.531884
	2.543083	2.524204
	2.535723	2.521964
	2.533804	2.514285
	2.537003	2.514925
	2.528364	2.502126
	2.596199	2.500206
	2.523244	2.501166
	2.522924	2.509805
	2.520365	2.510445
	2.599399	2.520365
	2.524524	2.530604
	2.517805	2.542443
	2.518125	2.545003
	2.524204	2.549482
	2.564521	2.550122
	2.513965	2.687712
	2.516845	2.538283
	2.528684	2.531564
	2.518125	2.522284
	2.516205	2.530284
	2.521324	2.510445
	2.527724	2.509165
	2.524204	2.510445
	2.525164	2.521964
	2.528684	2.518445
	2.532204	2.523244
	2.529324	2.530284
	2.529004	2.538923
	2.529964	2.533484
	2.568681	2.531564
	2.528364	2.528364
	2.526444	2.527724
	2.526444	2.517485
	2.617318	2.512045
	2.525804	2.509485
	2.525804	2.509805
	2.527724	2.506926
	2.545963	2.509165
	2.527084	2.513645
	2.526444	2.522284
	2.525164	2.524524
	2.547563	2.529644
	2.522284	2.534444
	2.520685	2.538283
	2.518445	2.701471
	2.525484	2.535403
	2.518125	2.531564
	2.519085	2.524844
	2.519085	2.665954
	2.529324	2.514925
	2.523564	2.513325
	2.524844	2.505326
	2.526124	2.580200
	2.527724	2.501806
	2.526124	2.503406
	2.524204	2.507246
	2.522924	2.520045
	2.526124	2.518445
	2.619237	2.523244
	2.517485	2.528044
	2.516525	2.533804
	2.517805	2.533164
	2.546283	2.530924
	2.512685	2.526124
	2.513325	2.520685
	2.518125	2.559402
	2.517485	2.506926
	2.516205	2.501166
	2.517485	2.497006
	2.521324	2.617957
	2.523244	2.498606
	2.523244	2.501486
	2.525804	2.506606
	2.542763	2.520685
	2.535403	2.517485
	2.531244	2.520365
	2.531564	2.520365
	2.534764	2.515565
	2.539883	2.544683
	2.551722	2.501486
	2.543723	2.490927
	2.543083	2.483247
	2.549802	2.477488
	2.548523	2.525484
	2.543403	2.470448
	2.541163	2.473968
	2.542123	2.483567
	2.535083	2.606758
	2.587240	2.502446
	2.525484	2.511725
	2.521005	2.519725
	2.518765	2.539243
	2.518765	2.538923
	2.509485	2.521324
	2.506286	2.515245
	2.504366	2.510445
	2.503406	2.658275
	2.588200	2.493806
	2.497646	2.490287
	2.497646	2.489647
	2.498606	2.509165
	2.502446	2.500206
	2.498286	2.507565
	2.499886	2.516845
	2.501486	2.532524
	2.505646	2.532844
	2.583080	2.553322
	2.511405	2.549162
	2.516205	2.561002
	2.516845	2.549802
	2.527724	2.647715
	2.524204	2.650595
	2.523564	2.524524
	2.526444	2.558442
	2.529324	2.527724
	2.546603	2.527404
	2.525164	2.530924
	2.523884	2.609958
	2.522604	2.530924
	2.523564	2.539243
	2.521324	2.554922
	2.522604	2.664994
	2.523564	2.551082
	2.525484	2.621157
	2.533484	2.551402
	2.528684	2.547243
	2.532524	2.542123
	2.533484	2.529964
	2.537963	2.529964
	2.557802	2.522284
	2.534764	2.516525
	2.537643	2.513965
	2.537003	2.499566
	2.536683	2.516845
	2.562282	2.521964
	2.530284	2.511725
	2.529644	2.520365
	2.527724	2.530604
	2.530284	2.537003
	2.524844	2.548523
	2.521644	2.552362
	2.521964	2.546283
	2.521644	2.543403
	2.527084	2.542443
	2.518125	2.536043
	2.516205	2.518445
	2.516525	2.508525
	2.517165	2.502766
	2.576041	2.498606
	2.519085	2.496366
	2.520365	2.496046
	2.524844	2.500526
	2.527084	2.508525
	2.546923	2.517485
	2.534764	2.529004
	2.537963	2.534444
	2.540523	2.540203
	2.543403	2.542443
	2.545963	2.544043
	2.542443	2.537643
	2.540843	2.530284
	2.537643	2.520365
	2.536043	2.511085
	2.617638	2.501806
	2.528044	2.495406
	2.526124	2.490927
	2.523564	2.491247
	2.525804	2.493487
	2.550762	2.500526
	2.528364	2.508525
	2.533164	2.516525
	2.538603	2.525164
	2.540523	2.532204
	2.644196	2.537963
	2.544043	2.538603
	2.544363	2.535723
	2.542443	2.531884
	2.541163	2.523884
	2.542443	2.518125
	2.527724	2.508845
	2.523244	2.504366
	2.519405	2.501486
	2.516525	2.501166
	2.518765	2.503086
	2.512045	2.509805
	2.513965	2.514605
	2.516205	2.522924
	2.521324	2.527724
	2.530284	2.533164
	2.532204	2.535723
	2.536363	2.538603
	2.538283	2.536363
	2.542443	2.532204
	2.544683	2.526444
	2.623397	2.521005
	2.536363	2.513325
	2.535403	2.509485
	2.530284	2.506286
	2.525164	2.505006
	2.534764	2.505326
	2.516205	2.507246
	2.513965	2.510765
	2.512365	2.515885
	2.512045	2.518125
	2.520045	2.519405
	2.512045	2.520045
	2.512365	2.521324
	2.515245	2.519725
	2.516845	2.516845
	2.519085	2.514285
	2.586600	2.513005
	2.514925	2.510445
	2.512045	2.510765
	2.509485	2.511405
	2.507246	2.511725
	2.608678	2.513645
	2.500526	2.513965
	2.494446	2.515565
	2.498926	2.514605
	2.499566	2.513005
	2.502766	2.511725
	2.545323	2.509805
	2.507885	2.507885
	2.513005	2.505006
	2.518125	2.504046
	2.522284	2.505646
	2.536683	2.506926
	2.525804	2.510445
	2.528044	2.513965
	2.527724	2.518445
	2.526764	2.522284
	2.534124	2.525484
	2.533164	2.527724
	2.519725	2.528044
	2.517165	2.527724
	2.514605	2.525164
	2.513965	2.521644
	2.557482	2.518765
	2.631716	2.515885
	2.520685	2.511725
	2.506286	2.509165
	2.506926	2.509165
	2.507246	2.509805
	2.578600	2.511725
	2.580520	2.514605
	2.508205	2.519725
	2.509805	2.523564
	2.511725	2.525484
	2.518445	2.527404
	2.526444	2.525164
	2.516845	2.522604
	2.574441	2.519405
	2.523564	2.513325
	2.526764	2.508525
	2.529004	2.504686
	2.531884	2.502446
	2.550122	2.500526
	2.555242	2.501806
	2.612518	2.501166
	2.518125	2.504046
	2.540523	2.505966
	2.518765	2.508525
	2.524844	2.510125
	2.508845	2.511725
	2.507885	2.512045
	2.567401	2.512365
	2.514285	2.513645
	2.560362	2.514925
	2.536043	2.513645
	2.514605	2.515565
	2.516845	2.515245
	2.508845	2.516205
	2.510125	2.516205
	2.508525	2.514925
	2.504366	2.514925
	2.507246	2.513965
	2.533164	2.512685
	2.505006	2.512685
	2.504686	2.513645
	2.510125	2.514925
	2.501166	2.515245
	2.503406	2.514925
	2.509805	2.514605
	2.510125	2.513965
	2.512045	2.513645
	2.516525	2.513325
	2.521964	2.513005
	2.529644	2.511725
	2.529324	2.513005
	2.520045	2.514605
	2.519725	2.517165
	2.518125	2.518445
	2.514605	2.521005
	2.515245	2.522284
	2.511085	2.522604
	2.508525	2.522604
	2.506286	2.521324
	2.506926	2.520685
	2.505326	2.519085
	2.506286	2.517485
	2.505966	2.515885
	2.505326	2.515885
	2.508205	2.516525
	2.512045	2.516525
	2.514285	2.518765
	2.517165	2.519085
	2.521644	2.517805
	2.526764	2.516845
	2.530924	2.514285
	2.530924	2.513005
	2.534444	2.510445
	2.534764	2.509485
	2.536683	2.509805
	2.536683	2.510765
	2.535083	2.511085
	2.535723	2.513645
	2.536683	2.515565
	2.536683	2.518125
	2.536683	2.519085
	2.535403	2.518125
	2.534764	2.519405
	2.532524	2.518765
	2.531884	2.521005
	2.530924	2.522604
	2.529644	2.525164
	2.527724	2.528684
	2.526764	2.529644
	2.524844	2.530924
	2.525484	2.531564
	2.524844	2.529644
	2.524844	2.525484
	2.523564	2.520365
	2.522284	2.514605
	2.521644	2.509485
	2.520045	2.504686
	2.516845	2.501486
	2.515565	2.502446
	2.512685	2.504046
	2.510765	2.507246
	2.509485	2.510125
	2.509485	2.514925
	2.510765	2.517485
	2.513645	2.519725
	2.516845	2.520685
	2.520365	2.520685
	2.523884	2.520365
	2.526124	2.519085
	2.529004	2.517485
	2.531564	2.515885
	2.532844	2.514605
	2.534764	2.513965
	2.536043	2.513005
	2.536363	2.512365
	2.537963	2.511405
	2.538603	2.510445
	2.538603	2.508525
	2.537003	2.509485
	2.535723	2.508525
	2.534764	2.510445
	2.532204	2.510765
	2.529324	2.514605
	2.525164	2.518445
	2.522924	2.522284
	2.520365	2.524524
	2.517485	2.526444
	2.515245	2.529004
	2.513645	2.529644
	2.512045	2.529644
	2.511405	2.527724
	2.508205	2.524524
	2.506606	2.521324
	2.505326	2.517485
	2.505966	2.514285
	2.506606	2.510125
	2.507246	2.507885
	2.510445	2.506926
	2.514925	2.504366
	2.518445	2.506286
	2.521964	2.507246
	2.526444	2.508205
	2.528364	2.508525
	2.530604	2.508525
	2.529644	2.508845
	2.528684	2.508525
	2.527404	2.509485
	2.525164	2.509805

