LabVIEW Measurement	
Writer_Version	2
Reader_Version	2
Separator	Tab
Decimal_Separator	.
Multi_Headings	Yes
X_Columns	No
Time_Pref	Absolute
Operator	jerem
Date	2023/01/31
Time	16:31:40.3077887300350944884
***End_of_Header***	
	
Channels	2		
Samples	6806	6806	
Date	2023/01/31	2023/01/31	
Time	16:31:40.3077887300350944884	16:31:40.30780122978102969	
Y_Unit_Label	Volts	Volts	
X_Dimension	Time	Time	
X0	0.0000000000000000E+0	0.0000000000000000E+0	
Delta_X	0.001000	0.001000	
***End_of_Header***			
X_Value	Voltage_0	Voltage_1	Comment
	2.539243	2.506606
	2.541163	2.506606
	2.543083	2.506606
	2.546923	2.506606
	2.552362	2.505646
	2.553962	2.506286
	2.558762	2.504686
	2.559402	2.502126
	2.561642	2.501486
	2.564521	2.499886
	2.566761	2.498286
	2.568681	2.497326
	2.570921	2.498606
	2.573801	2.499566
	2.576360	2.502766
	2.579240	2.504686
	2.580520	2.508845
	2.581160	2.512045
	2.581800	2.515565
	2.582440	2.519085
	2.581160	2.520045
	2.579560	2.520365
	2.577320	2.521324
	2.573161	2.520685
	2.566761	2.520365
	2.561002	2.521005
	2.551402	2.522604
	2.539883	2.526124
	2.528364	2.531564
	2.515885	2.538283
	2.508525	2.547883
	2.497646	2.557802
	2.486447	2.568681
	2.480047	2.578280
	2.476208	2.585960
	2.475568	2.593319
	2.476208	2.599079
	2.477808	2.600679
	2.483887	2.599719
	2.489007	2.594279
	2.498286	2.587240
	2.509165	2.576360
	2.520045	2.564201
	2.531884	2.553642
	2.539243	2.539883
	2.553002	2.526764
	2.566121	2.515885
	2.578600	2.506286
	2.590439	2.496686
	2.597479	2.489967
	2.606118	2.484847
	2.611558	2.480687
	2.614438	2.478768
	2.616358	2.478768
	2.615078	2.481007
	2.612198	2.484207
	2.606438	2.487727
	2.598759	2.492847
	2.592039	2.496366
	2.585000	2.499246
	2.577960	2.502446
	2.570921	2.503726
	2.564201	2.503406
	2.560682	2.501166
	2.557162	2.497646
	2.552362	2.490927
	2.550762	2.484847
	2.546923	2.477488
	2.540843	2.473008
	2.537963	2.467568
	2.530924	2.464369
	2.523244	2.465009
	2.514285	2.467888
	2.504686	2.472688
	2.499246	2.480687
	2.489967	2.489647
	2.482927	2.497326
	2.476528	2.504046
	2.473648	2.510445
	2.472368	2.513005
	2.471728	2.514605
	2.469488	2.512365
	2.470448	2.508845
	2.470768	2.504046
	2.472368	2.497966
	2.475888	2.492847
	2.479408	2.489007
	2.485487	2.487087
	2.490927	2.484847
	2.498606	2.485167
	2.508205	2.485807
	2.519405	2.487407
	2.531244	2.488367
	2.544043	2.488047
	2.551722	2.487087
	2.560362	2.484527
	2.568681	2.479408
	2.571881	2.473328
	2.570921	2.465968
	2.568041	2.459249
	2.561322	2.452529
	2.550442	2.449650
	2.537643	2.449330
	2.522924	2.453809
	2.514605	2.461169
	2.500846	2.471728
	2.491887	2.484847
	2.483887	2.500206
	2.479408	2.514925
	2.479088	2.528044
	2.480687	2.538603
	2.484847	2.545643
	2.491247	2.547563
	2.495726	2.544683
	2.500846	2.539563
	2.503726	2.530604
	2.504046	2.522284
	2.501806	2.517485
	2.499246	2.519085
	2.495406	2.529004
	2.490287	2.547563
	2.487087	2.575721
	2.486127	2.612518
	2.486767	2.652515
	2.490927	2.692832
	2.497006	2.727070
	2.506606	2.754268
	2.514925	2.769626
	2.521005	2.772826
	2.527724	2.769307
	2.531884	2.749468
	2.531564	2.722910
	2.527724	2.689952
	2.522604	2.655715
	2.513645	2.622757
	2.506286	2.594279
	2.499566	2.571241
	2.497006	2.556522
	2.500206	2.548842
	2.508525	2.546283
	2.520365	2.547883
	2.537003	2.550122
	2.555562	2.551082
	2.568681	2.550762
	2.585000	2.546603
	2.596199	2.537963
	2.602599	2.527724
	2.602599	2.515245
	2.599399	2.501486
	2.590759	2.490287
	2.583080	2.482287
	2.574761	2.477488
	2.570281	2.478128
	2.568361	2.484207
	2.571561	2.493806
	2.580200	2.505646
	2.591719	2.517805
	2.604838	2.528684
	2.614438	2.538283
	2.625957	2.543083
	2.632356	2.543083
	2.634596	2.539243
	2.631716	2.531564
	2.625637	2.522924
	2.613158	2.512685
	2.599399	2.504366
	2.583720	2.497966
	2.569321	2.493806
	2.561002	2.494766
	2.551722	2.498286
	2.545003	2.503726
	2.543723	2.509485
	2.544043	2.515245
	2.546283	2.519085
	2.546923	2.521005
	2.546603	2.520045
	2.546603	2.515885
	2.543083	2.507565
	2.538603	2.500526
	2.529964	2.491887
	2.520685	2.484207
	2.511405	2.477808
	2.502446	2.474928
	2.497646	2.473968
	2.492847	2.475888
	2.489967	2.479088
	2.490287	2.481647
	2.491567	2.484847
	2.492527	2.488047
	2.495406	2.487407
	2.497006	2.487407
	2.496046	2.484527
	2.493806	2.482287
	2.490927	2.478768
	2.487087	2.476848
	2.481327	2.478128
	2.476528	2.479088
	2.473328	2.483247
	2.472368	2.489967
	2.472368	2.498926
	2.474288	2.507246
	2.479088	2.514605
	2.483247	2.521324
	2.488367	2.525804
	2.495726	2.526444
	2.501166	2.526444
	2.505326	2.523564
	2.506286	2.519085
	2.508845	2.514605
	2.509165	2.510125
	2.510125	2.506286
	2.509805	2.505646
	2.511725	2.504366
	2.512685	2.505646
	2.515885	2.509165
	2.520365	2.512365
	2.525804	2.515565
	2.531564	2.519725
	2.536043	2.522604
	2.542443	2.524844
	2.545323	2.526124
	2.545003	2.526124
	2.543083	2.528044
	2.537963	2.529004
	2.530284	2.531244
	2.521324	2.532844
	2.513005	2.535083
	2.507885	2.538603
	2.501486	2.541803
	2.497646	2.543723
	2.498286	2.544683
	2.502126	2.543723
	2.506926	2.543723
	2.516845	2.541483
	2.527404	2.537003
	2.538283	2.532524
	2.550762	2.526124
	2.556202	2.519725
	2.563241	2.512365
	2.568041	2.506606
	2.571241	2.500206
	2.571241	2.495726
	2.570601	2.493806
	2.569641	2.493167
	2.569641	2.493487
	2.569321	2.494766
	2.569321	2.497646
	2.569321	2.499566
	2.568041	2.505646
	2.566441	2.508845
	2.565161	2.513965
	2.560682	2.520365
	2.554922	2.524524
	2.549162	2.529644
	2.541803	2.534764
	2.534124	2.538603
	2.526124	2.540203
	2.523564	2.543083
	2.519085	2.542123
	2.518445	2.539563
	2.518765	2.537323
	2.520685	2.532524
	2.521644	2.526444
	2.524844	2.520365
	2.526124	2.513005
	2.527724	2.505646
	2.527724	2.500526
	2.527724	2.497006
	2.525484	2.494766
	2.522604	2.495086
	2.519085	2.498286
	2.516845	2.501806
	2.515245	2.505966
	2.512685	2.511725
	2.512365	2.514285
	2.512045	2.517165
	2.513005	2.515885
	2.514605	2.513965
	2.517485	2.510765
	2.518765	2.504046
	2.520365	2.496366
	2.521005	2.488367
	2.522284	2.480367
	2.522284	2.475888
	2.524204	2.471408
	2.524524	2.468528
	2.525804	2.469168
	2.526764	2.472048
	2.527724	2.475888
	2.528684	2.482927
	2.529324	2.489967
	2.530924	2.496366
	2.530284	2.503086
	2.529004	2.508525
	2.526444	2.513005
	2.524524	2.515565
	2.522604	2.516525
	2.520045	2.517485
	2.519725	2.517485
	2.517165	2.518445
	2.517485	2.518445
	2.517805	2.517485
	2.520045	2.518445
	2.523244	2.519085
	2.525804	2.522604
	2.529964	2.524524
	2.533484	2.526764
	2.539563	2.528364
	2.544363	2.529324
	2.550122	2.529004
	2.555882	2.528044
	2.559082	2.525164
	2.564201	2.520685
	2.567401	2.606438
	2.569961	2.562601
	2.569961	2.508525
	2.569641	2.505966
	2.567401	2.505006
	2.563881	2.505006
	2.560042	2.537643
	2.553962	2.543083
	2.548203	2.553962
	2.544363	2.533484
	2.539883	2.541483
	2.535723	2.550442
	2.531884	2.555882
	2.531564	2.568361
	2.529324	2.578600
	2.528364	2.676193
	2.527084	2.649635
	2.526764	2.536363
	2.525164	2.545323
	2.525484	2.519725
	2.524204	2.520685
	2.524844	2.507885
	2.524524	2.532844
	2.524204	2.545323
	2.524204	2.580840
	2.525164	2.517805
	2.526124	2.513005
	2.525164	2.516205
	2.527404	2.518445
	2.526444	2.527724
	2.526124	2.513005
	2.522604	2.512365
	2.519405	2.511405
	2.515885	2.506606
	2.510445	2.505966
	2.506606	2.563561
	2.502126	2.565161
	2.500526	2.514285
	2.498926	2.520045
	2.499886	2.531244
	2.503406	2.544043
	2.507885	2.578280
	2.513005	2.560042
	2.521005	2.545963
	2.529324	2.558122
	2.539563	2.533804
	2.546603	2.528044
	2.550762	2.589480
	2.557162	2.517805
	2.560682	2.607078
	2.562921	2.497326
	2.563241	2.495726
	2.561642	2.495726
	2.560042	2.508845
	2.558762	2.511085
	2.556522	2.539883
	2.555242	2.519405
	2.554282	2.521964
	2.552042	2.525804
	2.550762	2.537003
	2.547563	2.530924
	2.544043	2.534124
	2.540523	2.524204
	2.533804	2.522284
	2.525804	2.534764
	2.516205	2.532524
	2.508205	2.528364
	2.503406	2.538603
	2.496046	2.524524
	2.491887	2.523884
	2.490607	2.521644
	2.493167	2.520685
	2.495406	2.516525
	2.503726	2.514605
	2.510125	2.651555
	2.519405	2.501486
	2.526764	2.497966
	2.530604	2.494766
	2.535083	2.493487
	2.535403	2.539883
	2.534764	2.490287
	2.533484	2.491247
	2.532524	2.490287
	2.529964	2.489327
	2.529964	2.491567
	2.531564	2.495406
	2.534764	2.491887
	2.536683	2.498926
	2.537963	2.501486
	2.539243	2.505006
	2.538923	2.510445
	2.538603	2.523564
	2.536043	2.517485
	2.532524	2.521644
	2.527724	2.522284
	2.524524	2.520365
	2.521644	2.519405
	2.521005	2.524844
	2.522604	2.512365
	2.524844	2.511405
	2.528684	2.511725
	2.534124	2.513005
	2.536683	2.519725
	2.540203	2.635236
	2.542763	2.518445
	2.541803	2.520365
	2.541163	2.521324
	2.538923	2.521964
	2.535403	2.530924
	2.532844	2.520045
	2.530924	2.517485
	2.529644	2.514605
	2.529644	2.516205
	2.530284	2.519725
	2.532524	2.527724
	2.533804	2.522924
	2.533484	2.524844
	2.533804	2.526444
	2.533164	2.527404
	2.531884	2.527724
	2.529644	2.543403
	2.527404	2.519405
	2.526124	2.513325
	2.525804	2.509805
	2.524844	2.506286
	2.526764	2.519405
	2.528364	2.500846
	2.529644	2.500526
	2.532204	2.501806
	2.533164	2.504366
	2.533164	2.514285
	2.532844	2.522924
	2.532204	2.510125
	2.530604	2.511085
	2.526124	2.512365
	2.525804	2.531564
	2.524524	2.609318
	2.548203	2.514605
	2.520365	2.516205
	2.519085	2.517485
	2.518125	2.524204
	2.516845	2.527404
	2.516205	2.525164
	2.516845	2.526124
	2.517165	2.527724
	2.519405	2.526124
	2.520365	2.539243
	2.524524	2.522924
	2.527404	2.519405
	2.530924	2.516845
	2.534764	2.514925
	2.536363	2.511085
	2.601959	2.508525
	2.543723	2.506286
	2.571881	2.505326
	2.624037	2.505966
	2.577000	2.509485
	2.553962	2.623717
	2.571561	2.511085
	2.543083	2.515245
	2.540843	2.517165
	2.545003	2.520045
	2.537643	2.631397
	2.625957	2.522924
	2.562282	2.523564
	2.524204	2.524204
	2.533804	2.525164
	2.535403	2.608998
	2.521644	2.526444
	2.518125	2.526444
	2.537323	2.528044
	2.523564	2.529324
	2.520685	2.537963
	2.541803	2.525164
	2.552042	2.522604
	2.533484	2.519085
	2.522604	2.517485
	2.530924	2.624037
	2.527084	2.508205
	2.543083	2.506606
	2.529324	2.505646
	2.531244	2.505966
	2.537003	2.519085
	2.554282	2.508205
	2.539883	2.511725
	2.533804	2.514925
	2.530604	2.519405
	2.531884	2.601959
	2.542443	2.522604
	2.538603	2.524204
	2.533484	2.524844
	2.536363	2.526444
	2.546603	2.565801
	2.628197	2.521964
	2.538603	2.518445
	2.540523	2.514605
	2.542123	2.510125
	2.615398	2.564201
	2.659554	2.500526
	2.542763	2.497326
	2.542763	2.495406
	2.544043	2.499886
	2.549482	2.496046
	2.544043	2.496046
	2.544043	2.497006
	2.543403	2.502446
	2.542443	2.510125
	2.554602	2.579560
	2.537643	2.509165
	2.534444	2.511725
	2.531564	2.513005
	2.532524	2.541163
	2.540523	2.511725
	2.517485	2.509165
	2.513645	2.506606
	2.542123	2.510765
	2.513645	2.505006
	2.625957	2.501486
	2.507246	2.501166
	2.510125	2.502766
	2.515245	2.507565
	2.521964	2.513325
	2.521005	2.506286
	2.524204	2.509165
	2.527084	2.511725
	2.531564	2.555882
	2.547243	2.572201
	2.531884	2.513005
	2.532204	2.513325
	2.533164	2.515885
	2.531244	2.596839
	2.525164	2.511405
	2.525484	2.512045
	2.549802	2.512365
	2.523564	2.535403
	2.524844	2.518445
	2.522284	2.522604
	2.523884	2.525804
	2.526764	2.529964
	2.528364	2.648675
	2.531884	2.531884
	2.529004	2.633636
	2.529964	2.531884
	2.529324	2.540203
	2.533484	2.538603
	2.525804	2.593959
	2.525484	2.519725
	2.522924	2.561322
	2.523244	2.556522
	2.519085	2.513965
	2.520365	2.514605
	2.523564	2.516845
	2.526124	2.519725
	2.530924	2.527724
	2.531244	2.515565
	2.536043	2.513325
	2.539883	2.516525
	2.543723	2.604838
	2.604198	2.601959
	2.548842	2.593959
	2.550762	2.506286
	2.553322	2.515245
	2.561002	2.510445
	2.554602	2.572201
	2.555562	2.533804
	2.553962	2.504046
	2.558442	2.506926
	2.550762	2.502446
	2.548842	2.518125
	2.546283	2.509485
	2.545643	2.511405
	2.568041	2.514925
	2.533804	2.505006
	2.528684	2.506286
	2.525804	2.512365
	2.529964	2.508845
	2.516205	2.548203
	2.513645	2.513325
	2.513005	2.513005
	2.513965	2.519085
	2.509485	2.615398
	2.510445	2.534124
	2.511085	2.524204
	2.512045	2.528044
	2.510765	2.542763
	2.509805	2.530924
	2.508205	2.528684
	2.505326	2.531564
	2.575401	2.533484
	2.498606	2.538283
	2.495086	2.524844
	2.493487	2.524844
	2.543403	2.524204
	2.492207	2.526444
	2.494126	2.521644
	2.497966	2.523564
	2.509165	2.523564
	2.510445	2.536043
	2.516845	2.524524
	2.521964	2.524524
	2.534444	2.525164
	2.534124	2.520685
	2.538283	2.514605
	2.540203	2.509485
	2.545003	2.504686
	2.540203	2.502446
	2.538923	2.491567
	2.537963	2.487407
	2.546283	2.484847
	2.536043	2.486767
	2.536363	2.486767
	2.537003	2.490287
	2.542443	2.496046
	2.540203	2.513645
	2.540843	2.508205
	2.541803	2.513965
	2.543403	2.521005
	2.541483	2.524204
	2.539563	2.522924
	2.535403	2.522284
	2.531884	2.519725
	2.653795	2.518765
	2.520045	2.512045
	2.516525	2.507246
	2.512685	2.505006
	2.514605	2.506926
	2.509165	2.502766
	2.512685	2.503406
	2.514605	2.507565
	2.519085	2.513965
	2.521324	2.518445
	2.525484	2.523884
	2.529324	2.529324
	2.531884	2.533484
	2.535083	2.533164
	2.537323	2.530604
	2.539243	2.525804
	2.536683	2.520685
	2.536363	2.511725
	2.534764	2.504686
	2.535723	2.497326
	2.532844	2.491887
	2.533484	2.489967
	2.534764	2.489007
	2.537643	2.493167
	2.538603	2.497966
	2.542443	2.503406
	2.545003	2.511725
	2.548842	2.519085
	2.549162	2.524204
	2.550122	2.527404
	2.549162	2.528364
	2.550122	2.528684
	2.542443	2.525164
	2.537323	2.520685
	2.530284	2.516845
	2.527084	2.511725
	2.515885	2.509805
	2.511405	2.508525
	2.507565	2.510125
	2.513325	2.513005
	2.503406	2.516525
	2.505646	2.521644
	2.505646	2.528044
	2.509165	2.532204
	2.514285	2.535723
	2.520365	2.537643
	2.525804	2.536683
	2.527724	2.531884
	2.532524	2.524844
	2.537963	2.516205
	2.543083	2.508525
	2.541163	2.500846
	2.543083	2.494766
	2.542123	2.490287
	2.545323	2.489007
	2.539563	2.489967
	2.539563	2.493806
	2.538283	2.499566
	2.599079	2.507885
	2.537963	2.516525
	2.537643	2.525164
	2.537323	2.533804
	2.535403	2.539563
	2.535723	2.542763
	2.530924	2.543723
	2.528044	2.544043
	2.521964	2.540523
	2.519405	2.535083
	2.514605	2.529644
	2.522604	2.523244
	2.504366	2.517165
	2.503726	2.511085
	2.503086	2.509165
	2.505006	2.508845
	2.506606	2.511085
	2.509805	2.514605
	2.516205	2.518445
	2.520045	2.522924
	2.524844	2.526124
	2.530604	2.526764
	2.613798	2.523884
	2.536043	2.520045
	2.535723	2.514605
	2.537323	2.505006
	2.534764	2.496046
	2.531244	2.488367
	2.529644	2.481967
	2.532524	2.479088
	2.525804	2.479728
	2.522924	2.483567
	2.523244	2.491247
	2.624037	2.500206
	2.524524	2.509485
	2.525804	2.517485
	2.528684	2.523564
	2.529004	2.525484
	2.528044	2.525484
	2.528044	2.521964
	2.571881	2.514285
	2.524524	2.506926
	2.522604	2.499246
	2.522924	2.493167
	2.521005	2.489647
	2.518445	2.489327
	2.518445	2.492847
	2.541803	2.497326
	2.521005	2.505966
	2.521964	2.512365
	2.526124	2.522604
	2.530924	2.530604
	2.532844	2.532844
	2.536683	2.532204
	2.549802	2.527404
	2.538603	2.522284
	2.539883	2.513965
	2.536043	2.505646
	2.533484	2.497966
	2.530284	2.493487
	2.526764	2.491567
	2.581480	2.492527
	2.522284	2.496686
	2.519725	2.503726
	2.522604	2.511725
	2.524524	2.519725
	2.527084	2.527404
	2.531244	2.532204
	2.543083	2.535403
	2.538283	2.535723
	2.540523	2.533484
	2.542763	2.530604
	2.539563	2.525804
	2.538283	2.520365
	2.535083	2.517485
	2.546603	2.514925
	2.526764	2.514925
	2.523564	2.516525
	2.530284	2.520045
	2.526764	2.524204
	2.600359	2.528044
	2.524844	2.532204
	2.564841	2.534764
	2.529004	2.535723
	2.530284	2.534444
	2.547883	2.530604
	2.534764	2.524524
	2.533804	2.517165
	2.537963	2.510445
	2.532844	2.502126
	2.550762	2.497006
	2.532524	2.493167
	2.604838	2.492207
	2.597159	2.493167
	2.532524	2.494766
	2.539563	2.498286
	2.583080	2.502446
	2.553642	2.506286
	2.549482	2.509485
	2.547243	2.511085
	2.615078	2.512365
	2.543083	2.512045
	2.554282	2.511725
	2.561962	2.509165
	2.550762	2.506926
	2.538923	2.505006
	2.553642	2.502766
	2.577000	2.502126
	2.538283	2.503726
	2.539243	2.504366
	2.541483	2.505966
	2.541163	2.507885
	2.538603	2.510125
	2.547243	2.512045
	2.532204	2.514925
	2.534444	2.517165
	2.547883	2.518125
	2.542763	2.518765
	2.532844	2.518765
	2.540843	2.518125
	2.553002	2.516845
	2.528364	2.515565
	2.530284	2.513965
	2.528044	2.511405
	2.525804	2.511725
	2.526764	2.511725
	2.532204	2.513325
	2.532524	2.514605
	2.527404	2.515885
	2.531244	2.515885
	2.536683	2.517805
	2.530604	2.516845
	2.537323	2.516525
	2.547883	2.512045
	2.534124	2.510765
	2.537643	2.507246
	2.540843	2.503406
	2.538923	2.502126
	2.540203	2.501486
	2.547563	2.503086
	2.544043	2.503726
	2.545003	2.506606
	2.546603	2.512365
	2.543083	2.515885
	2.542443	2.520045
	2.542763	2.523564
	2.542763	2.525804
	2.537323	2.525804
	2.545323	2.525484
	2.537003	2.523244
	2.533484	2.519725
	2.534764	2.517805
	2.534764	2.515885
	2.533164	2.515885
	2.532844	2.517485
	2.534124	2.519725
	2.535403	2.523244
	2.537003	2.528044
	2.542763	2.532524
	2.544683	2.535403
	2.548203	2.538283
	2.547243	2.537963
	2.546923	2.537323
	2.545323	2.533804
	2.541803	2.530604
	2.535403	2.524844
	2.531244	2.521964
	2.528364	2.518445
	2.523244	2.516845
	2.521964	2.515885
	2.522924	2.516525
	2.521964	2.518445
	2.523244	2.518765
	2.525164	2.519085
	2.527404	2.516845
	2.530284	2.514285
	2.528364	2.510125
	2.525804	2.505326
	2.523564	2.500526
	2.520045	2.495406
	2.514925	2.491567
	2.511405	2.492207
	2.510445	2.491567
	2.510765	2.495726
	2.510125	2.499246
	2.512045	2.502766
	2.513325	2.505326
	2.515565	2.506926
	2.518125	2.505006
	2.518765	2.503406
	2.518445	2.499566
	2.519085	2.496686
	2.518125	2.493806
	2.516205	2.494446
	2.517805	2.495726
	2.520365	2.500526
	2.521324	2.505646
	2.525804	2.512365
	2.530924	2.518765
	2.536043	2.524844
	2.541483	2.527724
	2.542763	2.528684
	2.545003	2.528684
	2.544043	2.525164
	2.541803	2.522604
	2.539883	2.519725
	2.539563	2.518125
	2.537323	2.516205
	2.535403	2.516845
	2.535403	2.517485
	2.537323	2.517805
	2.538603	2.519725
	2.542443	2.520365
	2.545003	2.519085
	2.549162	2.516525
	2.550442	2.512685
	2.550442	2.509165
	2.549482	2.505966
	2.547243	2.503406
	2.544043	2.502446
	2.540843	2.503086
	2.537643	2.503086
	2.534764	2.504686
	2.531244	2.506926
	2.528684	2.509485
	2.527084	2.510445
	2.525484	2.510765
	2.524204	2.525164
	2.523564	2.509485
	2.523564	2.507565
	2.524844	2.545003
	2.525484	2.505966
	2.527404	2.505966
	2.529964	2.587240
	2.532204	2.509805
	2.534124	2.517805
	2.536683	2.664034
	2.538923	2.513965
	2.537963	2.514925
	2.537643	2.555242
	2.536043	2.513965
	2.535083	2.537963
	2.531564	2.565161
	2.529324	2.535723
	2.527404	2.581480
	2.526764	2.513325
	2.526764	2.530284
	2.526444	2.547883
	2.526124	2.521964
	2.526124	2.545643
	2.525484	2.535083
	2.523564	2.528044
	2.521964	2.534764
	2.520045	2.541803
	2.517485	2.525164
	2.516845	2.539563
	2.514605	2.526444
	2.514925	2.572521
	2.514925	2.529004
	2.516205	2.532204
	2.518125	2.521005
	2.519405	2.525804
	2.520045	2.560362
	2.521644	2.521005
	2.521324	2.522604
	2.522284	2.576360
	2.521324	2.521005
	2.520045	2.520685
	2.520365	2.522604
	2.520045	2.523564
	2.520685	2.517165
	2.521644	2.512365
	2.523564	2.515245
	2.524204	2.518445
	2.525804	2.510765
	2.526124	2.512685
	2.526124	2.526764
	2.526764	2.515245
	2.527084	2.516205
	2.526444	2.624677
	2.527084	2.517485
	2.529004	2.516525
	2.529964	2.515885
	2.532844	2.515565
	2.537323	2.517165
	2.538603	2.514285
	2.540843	2.513965
	2.544363	2.525804
	2.545323	2.515245
	2.545643	2.515245
	2.546603	2.530604
	2.547563	2.514605
	2.545963	2.513645
	2.546283	2.513965
	2.543403	2.513005
	2.542443	2.513325
	2.540843	2.509165
	2.538923	2.509165
	2.536683	2.511405
	2.536683	2.506286
	2.537643	2.504686
	2.537003	2.520045
	2.537963	2.499886
	2.538603	2.495726
	2.539883	2.492527
	2.542123	2.489007
	2.542123	2.488367
	2.541483	2.482927
	2.542123	2.481007
	2.540523	2.489327
	2.538923	2.481007
	2.537643	2.481647
	2.534764	2.483247
	2.534444	2.484207
	2.532524	2.491247
	2.532204	2.488687
	2.531884	2.491567
	2.531244	2.497006
	2.530924	2.495406
	2.531564	2.497966
	2.530604	2.518445
	2.530284	2.500206
	2.529324	2.501486
	2.528364	2.499566
	2.526444	2.500526
	2.525804	2.502126
	2.524844	2.500526
	2.526764	2.502446
	2.528364	2.672354
	2.528364	2.505006
	2.529324	2.512045
	2.530604	2.508845
	2.531244	2.510125
	2.531884	2.510445
	2.532524	2.508845
	2.532844	2.522924
	2.532844	2.538923
	2.535403	2.499566
	2.537003	2.496686
	2.537643	2.495086
	2.539243	2.493806
	2.542443	2.494766
	2.543723	2.495726
	2.545003	2.495086
	2.546283	2.532524
	2.547883	2.502126
	2.547243	2.505006
	2.546923	2.505006
	2.546283	2.503406
	2.544683	2.511725
	2.541483	2.500846
	2.539243	2.497966
	2.536683	2.495406
	2.533484	2.493806
	2.531564	2.493167
	2.529324	2.493167
	2.529324	2.494446
	2.528364	2.587560
	2.529644	2.496366
	2.529644	2.499566
	2.530924	2.501166
	2.532204	2.502126
	2.531884	2.506286
	2.531884	2.504686
	2.532204	2.506926
	2.529964	2.507565
	2.530604	2.508845
	2.528684	2.510765
	2.527084	2.510125
	2.526444	2.511085
	2.523564	2.512365
	2.523884	2.515245
	2.522284	2.517485
	2.520685	2.521324
	2.519405	2.523564
	2.515565	2.552362
	2.605158	2.529004
	2.511085	2.528684
	2.606118	2.528364
	2.507246	2.525804
	2.505326	2.529644
	2.538283	2.519725
	2.504686	2.517165
	2.504366	2.513645
	2.596199	2.510765
	2.550122	2.512685
	2.617957	2.510125
	2.510445	2.511085
	2.552362	2.511405
	2.517165	2.513965
	2.519405	2.515565
	2.567081	2.515565
	2.526124	2.516845
	2.538603	2.517485
	2.559082	2.518765
	2.586600	2.522924
	2.570921	2.524204
	2.537003	2.525164
	2.540843	2.527724
	2.564841	2.530284
	2.547883	2.535723
	2.550762	2.532844
	2.537323	2.534444
	2.538923	2.534764
	2.545643	2.533804
	2.545643	2.532524
	2.547563	2.530604
	2.551402	2.527404
	2.548523	2.525164
	2.572521	2.521644
	2.553322	2.519085
	2.562601	2.514605
	2.560362	2.511085
	2.565161	2.507246
	2.569641	2.503086
	2.570601	2.501166
	2.572201	2.497326
	2.728029	2.493487
	2.567721	2.492527
	2.577640	2.492207
	2.562921	2.495086
	2.560682	2.492207
	2.563881	2.494446
	2.554602	2.497006
	2.551402	2.500846
	2.543083	2.508845
	2.540203	2.513325
	2.537323	2.521644
	2.533804	2.534444
	2.529324	2.547563
	2.520685	2.574121
	2.516845	2.574761
	2.513005	2.586280
	2.508845	2.593959
	2.517805	2.600359
	2.503406	2.601639
	2.502766	2.596199
	2.501486	2.589800
	2.501486	2.579880
	2.550762	2.571561
	2.502766	2.605478
	2.505966	2.553642
	2.504686	2.545323
	2.505966	2.538283
	2.508205	2.533164
	2.511405	2.528684
	2.530924	2.524524
	2.520365	2.532844
	2.524524	2.517805
	2.529644	2.512685
	2.534124	2.508525
	2.550122	2.504366
	2.539883	2.544683
	2.541803	2.490927
	2.540203	2.486767
	2.537963	2.482607
	2.533804	2.480687
	2.529324	2.479728
	2.527724	2.482287
	2.520045	2.493167
	2.514605	2.490607
	2.511405	2.494126
	2.508845	2.499886
	2.513005	2.503406
	2.503406	2.506926
	2.510125	2.506926
	2.500846	2.507246
	2.500846	2.504366
	2.500206	2.500846
	2.501806	2.496046
	2.508525	2.494126
	2.510765	2.511405
	2.520685	2.489007
	2.523884	2.487407
	2.532524	2.487727
	2.542763	2.489967
	2.550122	2.492207
	2.556522	2.495086
	2.561962	2.506606
	2.569321	2.500526
	2.564841	2.502766
	2.564201	2.505646
	2.570281	2.508845
	2.555882	2.511725
	2.548842	2.516205
	2.542443	2.527084
	2.543083	2.527084
	2.529324	2.532844
	2.522924	2.537643
	2.541163	2.542763
	2.513645	2.548842
	2.512045	2.550762
	2.510445	2.557482
	2.512365	2.550442
	2.509485	2.549162
	2.509485	2.546603
	2.533164	2.542763
	2.511725	2.538603
	2.514285	2.535403
	2.517165	2.534764
	2.520045	2.526764
	2.523884	2.524844
	2.526764	2.522284
	2.615718	2.520365
	2.532844	2.519725
	2.537323	2.519085
	2.538603	2.528684
	2.537963	2.521005
	2.538283	2.520045
	2.539563	2.521644
	2.545963	2.522284
	2.533484	2.524524
	2.533484	2.525164
	2.529324	2.578600
	2.527724	2.528684
	2.525164	2.530284
	2.525164	2.530604
	2.524524	2.532524
	2.524524	2.533804
	2.527724	2.533804
	2.526764	2.534764
	2.529004	2.532204
	2.529004	2.536043
	2.529644	2.527404
	2.530924	2.523244
	2.529324	2.521644
	2.629477	2.519085
	2.528684	2.517805
	2.529004	2.517485
	2.527724	2.537003
	2.527724	2.520685
	2.528684	2.524524
	2.528364	2.524204
	2.528684	2.525164
	2.529324	2.525484
	2.551722	2.523884
	2.530604	2.520045
	2.530924	2.516205
	2.531564	2.521644
	2.531244	2.510125
	2.531564	2.508205
	2.531884	2.507246
	2.532204	2.510445
	2.533164	2.514285
	2.545003	2.517485
	2.536363	2.520685
	2.537963	2.522604
	2.539243	2.530284
	2.541163	2.521005
	2.541163	2.518765
	2.543403	2.510765
	2.542763	2.504366
	2.544043	2.498286
	2.550762	2.493487
	2.544043	2.490287
	2.543403	2.488367
	2.541163	2.574121
	2.542763	2.494126
	2.541803	2.499246
	2.541163	2.504046
	2.538923	2.507246
	2.538923	2.509485
	2.536683	2.509485
	2.532844	2.507565
	2.532844	2.504046
	2.530284	2.587240
	2.529644	2.494446
	2.526444	2.495406
	2.530924	2.484847
	2.533484	2.482607
	2.538283	2.480687
	2.539883	2.482287
	2.544363	2.484847
	2.547563	2.487407
	2.551402	2.490927
	2.556202	2.494126
	2.556202	2.642916
	2.556202	2.495086
	2.557802	2.497006
	2.555242	2.492207
	2.553642	2.492207
	2.550122	2.489967
	2.545643	2.491567
	2.540523	2.494446
	2.535723	2.499886
	2.531244	2.505646
	2.538603	2.512365
	2.524204	2.519405
	2.521005	2.525804
	2.519725	2.576680
	2.520365	2.534764
	2.519725	2.539563
	2.521324	2.537323
	2.522604	2.537003
	2.523564	2.534444
	2.526124	2.529644
	2.526764	2.525804
	2.527724	2.520365
	2.529004	2.517485
	2.535083	2.513965
	2.527404	2.512685
	2.529004	2.512365
	2.526444	2.616998
	2.526444	2.518765
	2.523884	2.531884
	2.523884	2.530924
	2.523244	2.537643
	2.521005	2.542443
	2.521324	2.545643
	2.518125	2.547563
	2.515885	2.546923
	2.514925	2.544363
	2.700192	2.540203
	2.509485	2.535403
	2.516205	2.529324
	2.507246	2.525164
	2.507246	2.523244
	2.506926	2.607718
	2.508845	2.522924
	2.510765	2.544043
	2.513965	2.530284
	2.517165	2.539243
	2.521005	2.540203
	2.524844	2.543403
	2.529964	2.544683
	2.533164	2.544363
	2.536043	2.541483
	2.539563	2.537003
	2.543083	2.529644
	2.720990	2.521964
	2.545323	2.516205
	2.571881	2.510765
	2.548842	2.505326
	2.551082	2.503726
	2.552042	2.508525
	2.552362	2.502446
	2.554922	2.608358
	2.556522	2.504686
	2.559402	2.509805
	2.557802	2.508845
	2.557482	2.513325
	2.555882	2.514925
	2.553642	2.517165
	2.549162	2.519725
	2.545323	2.523884
	2.542443	2.526444
	2.537323	2.530604
	2.531884	2.533804
	2.527084	2.538923
	2.523884	2.541803
	2.522924	2.545323
	2.522284	2.548523
	2.547883	2.548523
	2.522924	2.549802
	2.597479	2.549162
	2.527084	2.547563
	2.534444	2.543083
	2.536683	2.671074
	2.539563	2.535403
	2.542443	2.550762
	2.545003	2.524204
	2.548203	2.531884
	2.551082	2.512365
	2.554282	2.506926
	2.557162	2.499566
	2.559082	2.497006
	2.561642	2.489647
	2.563881	2.487727
	2.565161	2.484847
	2.568041	2.484847
	2.569641	2.484847
	2.569961	2.488687
	2.568361	2.490287
	2.568041	2.494446
	2.565481	2.497966
	2.562601	2.502766
	2.559722	2.505326
	2.557482	2.508525
	2.553002	2.511405
	2.549482	2.513645
	2.547883	2.515885
	2.546603	2.517805
	2.546283	2.519725
	2.545003	2.521964
	2.546603	2.523564
	2.657955	2.523244
	2.549802	2.522924
	2.577000	2.524204
	2.553322	2.521644
	2.729309	2.520685
	2.553322	2.516525
	2.558762	2.512365
	2.555562	2.507565
	2.568681	2.502446
	2.555242	2.500206
	2.562282	2.497326
	2.554282	2.495406
	2.559722	2.494126
	2.551402	2.493806
	2.550762	2.493487
	2.549162	2.494126
	2.552682	2.494766
	2.548203	2.495406
	2.551722	2.495086
	2.547243	2.495406
	2.550762	2.495086
	2.547243	2.600039
	2.550122	2.493487
	2.547883	2.570921
	2.549482	2.493806
	2.546603	2.635876
	2.552042	2.495086
	2.547243	2.496366
	2.548842	2.498606
	2.549162	2.500526
	2.549482	2.504366
	2.549802	2.505966
	2.553002	2.508525
	2.550442	2.511405
	2.552362	2.512685
	2.546603	2.567081
	2.547883	2.514925
	2.537963	2.515885
	2.535723	2.517165
	2.529964	2.518125
	2.533484	2.521005
	2.522284	2.522604
	2.523564	2.525804
	2.517165	2.528364
	2.522284	2.528684
	2.517805	2.533804
	2.522604	2.534764
	2.520045	2.535083
	2.560682	2.534444
	2.521964	2.533164
	2.537003	2.531564
	2.522284	2.529324
	2.616678	2.525804
	2.520365	2.525164
	2.532844	2.523564
	2.517485	2.523884
	2.517165	2.522604
	2.513325	2.523564
	2.512045	2.524524
	2.511405	2.526444
	2.509805	2.526764
	2.508845	2.528044
	2.509165	2.527724
	2.510445	2.525164
	2.508845	2.523244
	2.508845	2.519725
	2.509485	2.514285
	2.510445	2.509165
	2.511085	2.503726
	2.511405	2.499566
	2.513965	2.496366
	2.514925	2.493806
	2.517805	2.492527
	2.521005	2.489007
	2.523244	2.496046
	2.523884	2.489007
	2.525484	2.494126
	2.526124	2.490607
	2.526124	2.494446
	2.527404	2.492207
	2.525164	2.529324
	2.525484	2.496366
	2.523244	2.564201
	2.531244	2.500846
	2.521324	2.509805
	2.523244	2.504686
	2.517485	2.509165
	2.540523	2.511725
	2.514925	2.514925
	2.516205	2.517805
	2.515885	2.521005
	2.518765	2.565481
	2.515885	2.523884
	2.516205	2.525164
	2.516525	2.528044
	2.517485	2.543723
	2.517485	2.529644
	2.518125	2.545643
	2.518125	2.530284
	2.518125	2.534764
	2.517805	2.535403
	2.517805	2.537003
	2.518125	2.537643
	2.518125	2.546283
	2.518125	2.538283
	2.518765	2.554282
	2.519085	2.538923
	2.517165	2.579560
	2.518765	2.539883
	2.519085	2.623077
	2.550762	2.539883
	2.518765	2.701471
	2.521005	2.565481
	2.521964	2.536043
	2.520685	2.537003
	2.523244	2.531884
	2.523564	2.529644
	2.525164	2.535403
	2.525164	2.525804
	2.525804	2.599719
	2.526444	2.519725
	2.528044	2.521964
	2.529644	2.515245
	2.531244	2.529964
	2.532524	2.505006
	2.541163	2.510125
	2.538923	2.520685
	2.555242	2.506286
	2.545323	2.491887
	2.546923	2.499246
	2.549162	2.485487
	2.549162	2.499246
	2.551402	2.481327
	2.551722	2.479728
	2.551082	2.481327
	2.551082	2.480367
	2.551082	2.484207
	2.549162	2.543083
	2.549482	2.492527
	2.548203	2.488367
	2.547243	2.491887
	2.542763	2.491887
	2.744988	2.497326
	2.538923	2.495086
	2.537003	2.508205
	2.536043	2.494766
	2.534444	2.508525
	2.534124	2.494766
	2.534124	2.501806
	2.536363	2.496686
	2.538603	2.504046
	2.544043	2.497326
	2.548203	2.497326
	2.557162	2.500846
	2.562282	2.495086
	2.573161	2.498606
	2.581160	2.496046
	2.592679	2.499246
	2.601639	2.496366
	2.612838	2.576360
	2.622117	2.496046
	2.630117	2.496686
	2.634916	2.495406
	2.636196	2.493806
	2.638756	2.496046
	2.629477	2.496046
	2.661154	2.496366
	2.611238	2.497646
	2.603878	2.500846
	2.590119	2.500846
	2.577000	2.545963
	2.563881	2.505326
	2.552042	2.507246
	2.544363	2.511085
	2.534444	2.513965
	2.526444	2.518125
	2.519405	2.521964
	2.537963	2.526764
	2.510765	2.526764
	2.507246	2.538283
	2.506286	2.532524
	2.503726	2.535083
	2.502766	2.535403
	2.502766	2.537323
	2.504366	2.539563
	2.504046	2.540203
	2.515885	2.541803
	2.506606	2.542763
	2.508205	2.561642
	2.510445	2.545003
	2.511725	2.553642
	2.513645	2.545643
	2.518125	2.545323
	2.519725	2.543083
	2.521964	2.541483
	2.532844	2.539563
	2.527404	2.537003
	2.528684	2.537323
	2.530284	2.532204
	2.531884	2.530604
	2.535723	2.527404
	2.537643	2.526764
	2.540523	2.525164
	2.544043	2.524844
	2.549162	2.524844
	2.549802	2.526124
	2.553642	2.528044
	2.555562	2.524844
	2.557162	2.524844
	2.560362	2.522284
	2.562921	2.518765
	2.564841	2.518125
	2.567401	2.513965
	2.574761	2.517165
	2.571241	2.509485
	2.573481	2.508205
	2.574761	2.504046
	2.576360	2.509805
	2.575401	2.500526
	2.574441	2.497966
	2.573161	2.497326
	2.569961	2.494766
	2.579880	2.495726
	2.565161	2.492207
	2.562282	2.489967
	2.558762	2.488687
	2.553962	2.487087
	2.553642	2.486447
	2.549162	2.485167
	2.547563	2.489967
	2.540203	2.485487
	2.581160	2.487407
	2.536363	2.489327
	2.532844	2.491567
	2.530924	2.493806
	2.530924	2.496366
	2.528684	2.504366
	2.527724	2.500526
	2.678433	2.502126
	2.526124	2.502446
	2.525804	2.501806
	2.525804	2.503086
	2.525484	2.502126
	2.525484	2.510125
	2.525164	2.501486
	2.539883	2.503726
	2.523564	2.506286
	2.522924	2.506926
	2.521005	2.511725
	2.518765	2.515245
	2.517485	2.522924
	2.516205	2.522284
	2.528044	2.526124
	2.512365	2.528044
	2.510445	2.530604
	2.508525	2.531884
	2.505326	2.531884
	2.505326	2.533484
	2.501486	2.532524
	2.534124	2.532844
	2.494446	2.533164
	2.491887	2.533804
	2.488047	2.540523
	2.486127	2.535403
	2.484527	2.536363
	2.482607	2.537323
	2.481327	2.535403
	2.481007	2.536683
	2.481327	2.536683
	2.481967	2.535403
	2.483887	2.532844
	2.490607	2.531884
	2.488367	2.531884
	2.490287	2.532204
	2.493167	2.533804
	2.496686	2.533804
	2.497646	2.536043
	2.494446	2.536683
	2.547563	2.538923
	2.501486	2.541803
	2.503086	2.553002
	2.502766	2.542763
	2.502766	2.542443
	2.510765	2.540523
	2.504366	2.539243
	2.505646	2.537323
	2.523884	2.537003
	2.507246	2.532204
	2.527724	2.529644
	2.517805	2.527404
	2.692192	2.523564
	2.561962	2.518765
	2.521005	2.516205
	2.597479	2.508845
	2.531884	2.502446
	2.648995	2.497646
	2.543083	2.494126
	2.544683	2.488687
	2.569321	2.486447
	2.554282	2.483247
	2.581160	2.483567
	2.565801	2.484527
	2.583720	2.487087
	2.567401	2.490607
	2.561642	2.491247
	2.573481	2.497326
	2.560362	2.502126
	2.565801	2.504046
	2.559082	2.508525
	2.546603	2.513965
	2.546603	2.511085
	2.539243	2.512685
	2.564841	2.513965
	2.537323	2.515885
	2.533484	2.518125
	2.539563	2.519725
	2.530604	2.522604
	2.539883	2.524844
	2.529964	2.525484
	2.620197	2.523564
	2.527724	2.526764
	2.522284	2.524844
	2.531884	2.524204
	2.516845	2.521644
	2.515245	2.519085
	2.512685	2.515565
	2.510765	2.514605
	2.595559	2.510765
	2.510125	2.509805
	2.513965	2.509805
	2.513645	2.508205
	2.513965	2.508525
	2.519085	2.508525
	2.519405	2.505646
	2.523564	2.503406
	2.523884	2.499886
	2.521324	2.496686
	2.564201	2.489967
	2.521644	2.484847
	2.522924	2.480687
	2.522924	2.475248
	2.521005	2.472368
	2.553642	2.470768
	2.522284	2.469808
	2.523564	2.472048
	2.524844	2.474928
	2.524204	2.479728
	2.530924	2.484847
	2.523244	2.489647
	2.520045	2.492527
	2.518445	2.497326
	2.514925	2.500846
	2.514285	2.503086
	2.505326	2.505326
	2.513005	2.508205
	2.499886	2.511085
	2.495406	2.513325
	2.491887	2.516845
	2.488687	2.519085
	2.486767	2.522924
	2.506926	2.525484
	2.485487	2.528364
	2.487727	2.531244
	2.487727	2.530284
	2.489967	2.535403
	2.492527	2.529964
	2.494126	2.527404
	2.497326	2.523564
	2.498606	2.520045
	2.501806	2.517165
	2.502446	2.513005
	2.504686	2.509805
	2.507246	2.507246
	2.506926	2.504686
	2.507565	2.504366
	2.509165	2.505646
	2.509485	2.505006
	2.510125	2.505966
	2.512365	2.507565
	2.510765	2.505646
	2.511725	2.507246
	2.511085	2.508205
	2.512045	2.508525
	2.511725	2.507885
	2.512685	2.508525
	2.512045	2.509805
	2.524204	2.511085
	2.512685	2.510765
	2.513645	2.513325
	2.514605	2.514925
	2.516525	2.515885
	2.520365	2.519085
	2.521005	2.521005
	2.526124	2.521964
	2.543083	2.525164
	2.534124	2.526444
	2.540523	2.530284
	2.549162	2.531564
	2.569961	2.531884
	2.569961	2.532204
	2.576360	2.534444
	2.588840	2.532204
	2.600359	2.532204
	2.610918	2.530924
	2.618277	2.528044
	2.621797	2.524204
	2.626277	2.521005
	2.624997	2.516205
	2.621157	2.511085
	2.616998	2.505006
	2.612198	2.501486
	2.604838	2.513965
	2.597799	2.493487
	2.589160	2.490927
	2.582120	2.490607
	2.577320	2.490607
	2.573161	2.494766
	2.570281	2.497326
	2.567721	2.503086
	2.567401	2.509805
	2.565481	2.511405
	2.564521	2.515885
	2.566121	2.519085
	2.563561	2.521644
	2.562282	2.523884
	2.560362	2.525484
	2.559082	2.526124
	2.555242	2.548842
	2.549802	2.526124
	2.548842	2.525164
	2.547243	2.525804
	2.544043	2.524524
	2.539243	2.522604
	2.540843	2.522604
	2.540523	2.521324
	2.538603	2.521005
	2.539563	2.519725
	2.539883	2.518445
	2.541803	2.518765
	2.544043	2.516845
	2.546603	2.518445
	2.551722	2.518765
	2.557162	2.521964
	2.558122	2.522924
	2.566761	2.523884
	2.572841	2.524524
	2.577640	2.525164
	2.580200	2.524844
	2.588840	2.523244
	2.586600	2.521324
	2.581800	2.516845
	2.578280	2.513965
	2.571241	2.509165
	2.565161	2.504686
	2.561002	2.499566
	2.552682	2.496686
	2.545323	2.494126
	2.537003	2.613798
	2.532524	2.489327
	2.530924	2.487727
	2.525484	2.488047
	2.526444	2.488367
	2.525804	2.488687
	2.527724	2.489967
	2.528364	2.491567
	2.532204	2.492847
	2.535083	2.494126
	2.535723	2.495406
	2.538923	2.495406
	2.539243	2.497326
	2.541483	2.497006
	2.543403	2.506286
	2.544683	2.500206
	2.549802	2.502766
	2.551082	2.505326
	2.558122	2.507885
	2.565481	2.510445
	2.572841	2.512685
	2.578920	2.514925
	2.585960	2.517485
	2.591399	2.517485
	2.596199	2.518445
	2.597799	2.518125
	2.597799	2.517485
	2.595239	2.516205
	2.591079	2.514285
	2.583720	2.513965
	2.577320	2.513005
	2.572521	2.529644
	2.565161	2.514605
	2.557802	2.516205
	2.552042	2.519405
	2.547243	2.523884
	2.544363	2.528364
	2.540203	2.532524
	2.536363	2.537003
	2.531884	2.542443
	2.528364	2.547563
	2.525484	2.552042
	2.519725	2.555562
	2.516205	2.558442
	2.512045	2.560682
	2.508845	2.560042
	2.507885	2.559722
	2.506926	2.558122
	2.509805	2.555242
	2.510765	2.551722
	2.512365	2.545963
	2.514925	2.541163
	2.518125	2.537003
	2.519085	2.531884
	2.520685	2.527404
	2.519725	2.525164
	2.518445	2.523564
	2.515565	2.536683
	2.512045	2.522604
	2.509165	2.522284
	2.504046	2.529644
	2.501806	2.520685
	2.499246	2.519725
	2.495406	2.520045
	2.493487	2.518765
	2.492527	2.517165
	2.491247	2.516525
	2.489327	2.516205
	2.489647	2.515885
	2.489007	2.519085
	2.488367	2.520045
	2.490287	2.522604
	2.490287	2.526124
	2.493806	2.528044
	2.497006	2.528684
	2.500526	2.528044
	2.503726	2.526764
	2.507565	2.522604
	2.510125	2.516845
	2.513645	2.511405
	2.518125	2.505326
	2.520365	2.500206
	2.523564	2.497006
	2.525484	2.495086
	2.527724	2.493167
	2.529964	2.494446
	2.531564	2.495406
	2.536363	2.497966
	2.536683	2.498606
	2.539243	2.499246
	2.544043	2.497966
	2.543723	2.495406
	2.545963	2.491567
	2.549482	2.485487
	2.546923	2.480367
	2.544363	2.476208
	2.627557	2.472688
	2.538923	2.470128
	2.537003	2.469808
	2.533484	2.470768
	2.529004	2.473968
	2.526124	2.477488
	2.522924	2.480367
	2.519725	2.481967
	2.516525	2.484527
	2.515565	2.484847
	2.513325	2.484527
	2.510765	2.483567
	2.509485	2.480367
	2.507565	2.478128
	2.505966	2.475248
	2.509805	2.474928
	2.506286	2.473648
	2.505646	2.475248
	2.509165	2.477168
	2.511405	2.476208
	2.514925	2.478128
	2.519085	2.482287
	2.524204	2.477808
	2.528364	2.476848
	2.531884	2.485167
	2.533804	2.474608
	2.535403	2.473008
	2.537323	2.554282
	2.538923	2.473648
	2.538603	2.473968
	2.538923	2.476528
	2.537643	2.481647
	2.537323	2.485167
	2.538603	2.489967
	2.538603	2.495726
	2.540203	2.499246
	2.539883	2.503406
	2.541803	2.505966
	2.542123	2.506606
	2.543403	2.506926
	2.543083	2.507246
	2.542443	2.505326
	2.541483	2.504046
	2.541803	2.504366
	2.540203	2.502126
	2.539563	2.503086
	2.538923	2.514285
	2.539243	2.504686
	2.538923	2.506926
	2.541803	2.625637
	2.540843	2.509485
	2.540843	2.511085
	2.540203	2.513965
	2.539243	2.515885
	2.537323	2.518125
	2.533804	2.521964
	2.536363	2.526124
	2.523884	2.529324
	2.517165	2.532844
	2.512685	2.537323
	2.506606	2.541163
	2.501166	2.546283
	2.496686	2.559082
	2.492847	2.553002
	2.491247	2.557162
	2.488687	2.561322
	2.486127	2.563241
	2.485487	2.566121
	2.482287	2.567401
	2.481327	2.567721
	2.479088	2.570281
	2.477808	2.569961
	2.476528	2.568361
	2.475248	2.568041
	2.475568	2.566121
	2.474928	2.576041
	2.479088	2.561322
	2.481647	2.558122
	2.488047	2.554282
	2.490927	2.550442
	2.496366	2.546283
	2.501806	2.542763
	2.505646	2.537643
	2.509165	2.535083
	2.509165	2.531564
	2.511405	2.529324
	2.509805	2.528044
	2.507885	2.525804
	2.506606	2.526124
	2.502446	2.525804
	2.499886	2.526444
	2.496686	2.526764
	2.502126	2.528044
	2.491247	2.526444
	2.488687	2.527084
	2.486767	2.529004
	2.485487	2.528044
	2.483567	2.530924
	2.483247	2.543723
	2.483887	2.535403
	2.482607	2.539243
	2.481967	2.542763
	2.488047	2.546283
	2.482607	2.550442
	2.484207	2.554922
	2.485807	2.557162
	2.491247	2.559082
	2.493806	2.560362
	2.497966	2.665314
	2.502126	2.559402
	2.508525	2.556522
	2.513965	2.553962
	2.519405	2.551082
	2.521005	2.548203
	2.525804	2.544683
	2.529644	2.544683
	2.531564	2.538603
	2.534124	2.536363
	2.535403	2.532844
	2.538283	2.527724
	2.538603	2.523564
	2.540523	2.517485
	2.542763	2.513965
	2.545003	2.507885
	2.546923	2.501806
	2.549802	2.498606
	2.556202	2.495406
	2.554282	2.493487
	2.554922	2.493487
	2.554602	2.494446
	2.553002	2.496366
	2.549482	2.499246
	2.544043	2.513645
	2.540843	2.505326
	2.535403	2.504366
	2.529324	2.508205
	2.521964	2.507885
	2.516525	2.506606
	2.512045	2.502766
	2.507885	2.503726
	2.503726	2.494126
	2.502766	2.489007
	2.501806	2.483567
	2.501806	2.480367
	2.501806	2.476208
	2.503406	2.473008
	2.505006	2.485167
	2.506606	2.472048
	2.508205	2.472048
	2.512045	2.471408
	2.515245	2.471088
	2.516845	2.472048
	2.519405	2.472368
	2.519725	2.481967
	2.520685	2.471408
	2.517805	2.469488
	2.516205	2.470448
	2.512685	2.470448
	2.512365	2.469488
	2.508525	2.469168
	2.505966	2.594599
	2.507246	2.472368
	2.506606	2.474608
	2.507246	2.476528
	2.509805	2.479088
	2.513325	2.480367
	2.517485	2.481967
	2.522284	2.481967
	2.523564	2.481647
	2.526124	2.481967
	2.527404	2.481007
	2.526124	2.495406
	2.524524	2.480687
	2.522284	2.481647
	2.518445	2.482287
	2.515885	2.483887
	2.514925	2.486447
	2.513645	2.489327
	2.513965	2.493487
	2.513965	2.497966
	2.515885	2.502766
	2.520365	2.507885
	2.523244	2.523244
	2.527084	2.515565
	2.530924	2.518445
	2.532844	2.520685
	2.535083	2.523244
	2.534124	2.523884
	2.534764	2.526124
	2.534124	2.526764
	2.532844	2.527404
	2.531244	2.529004
	2.529964	2.531564
	2.529324	2.540203
	2.530604	2.537963
	2.527724	2.540843
	2.529964	2.544683
	2.530284	2.548523
	2.530604	2.548842
	2.532844	2.550762
	2.533484	2.551402
	2.533164	2.549162
	2.534124	2.547243
	2.533164	2.543723
	2.531244	2.565161
	2.531884	2.535083
	2.530604	2.531564
	2.530284	2.528684
	2.530604	2.616358
	2.530284	2.527084
	2.530604	2.527084
	2.530604	2.528364
	2.530604	2.540203
	2.534764	2.531244
	2.532844	2.530284
	2.533484	2.531564
	2.534124	2.532524
	2.535723	2.529324
	2.535403	2.528684
	2.535403	2.528684
	2.537643	2.529324
	2.538283	2.528044
	2.539243	2.527724
	2.539883	2.528044
	2.540523	2.528364
	2.542123	2.529324
	2.542123	2.529644
	2.542123	2.527404
	2.543083	2.523564
	2.543723	2.519725
	2.544043	2.518445
	2.546603	2.517805
	2.547563	2.526124
	2.548842	2.512365
	2.551722	2.580520
	2.553642	2.620517
	2.558122	2.559722
	2.558762	2.585960
	2.560362	2.732829
	2.562282	2.629477
	2.564201	2.576360
	2.564201	2.541483
	2.562921	2.594279
	2.561642	2.605798
	2.571241	2.535083
	2.556522	2.515245
	2.553002	2.562921
	2.550762	2.540523
	2.550762	2.527084
	2.544683	2.517165
	2.540843	2.540203
	2.537963	2.539243
	2.534764	2.537323
	2.529324	2.530604
	2.523884	2.554282
	2.518445	2.539243
	2.521964	2.538923
	2.507885	2.536683
	2.500846	2.549482
	2.493487	2.560682
	2.488687	2.541163
	2.481967	2.544683
	2.479728	2.555562
	2.475248	2.558122
	2.471728	2.551082
	2.470768	2.553962
	2.469808	2.561962
	2.468848	2.578600
	2.469488	2.569321
	2.470128	2.570921
	2.470768	2.577640
	2.473008	2.579880
	2.473648	2.574441
	2.474928	2.573481
	2.475888	2.571881
	2.476848	2.576360
	2.478128	2.563241
	2.481007	2.557162
	2.485167	2.553002
	2.489007	2.548523
	2.495726	2.540843
	2.499246	2.534764
	2.505966	2.527404
	2.511725	2.524844
	2.518445	2.517805
	2.523564	2.511725
	2.527084	2.507885
	2.531884	2.499566
	2.537003	2.499566
	2.543083	2.487727
	2.544043	2.491247
	2.547563	2.556842
	2.552362	2.577960
	2.562921	2.489967
	2.565481	2.478448
	2.572521	2.545963
	2.575401	2.496046
	2.581480	2.541803
	2.585320	2.475888
	2.585320	2.510765
	2.583080	2.499246
	2.580520	2.491247
	2.575721	2.514285
	2.568681	2.512045
	2.560042	2.519085
	2.551402	2.507565
	2.548203	2.507565
	2.537963	2.518445
	2.530924	2.523244
	2.526444	2.513325
	2.523564	2.510125
	2.522284	2.506926
	2.519405	2.515885
	2.520685	2.509485
	2.521644	2.500846
	2.521324	2.498286
	2.522284	2.506286
	2.526124	2.506926
	2.526764	2.510445
	2.548523	2.504046
	2.530924	2.506926
	2.531244	2.511085
	2.533484	2.512365
	2.534444	2.536363
	2.534444	2.510765
	2.533804	2.511405
	2.533804	2.508525
	2.532844	2.504046
	2.532844	2.501486
	2.528044	2.497966
	2.526764	2.498926
	2.524524	2.498926
	2.522924	2.505326
	2.521964	2.510765
	2.520685	2.518765
	2.520045	2.530604
	2.521324	2.539883
	2.528364	2.547883
	2.523564	2.556842
	2.521324	2.564841
	2.520365	2.570281
	2.520365	2.572521
	2.519725	2.576360
	2.517485	2.579560
	2.515245	2.578920
	2.513965	2.579880
	2.514925	2.577000
	2.512365	2.578920
	2.510765	2.579880
	2.510765	2.577960
	2.509805	2.577640
	2.511725	2.575401
	2.513645	2.573161
	2.514285	2.567721
	2.513965	2.564841
	2.520365	2.567721
	2.516525	2.550762
	2.516205	2.544043
	2.515245	2.537643
	2.514605	2.530924
	2.513325	2.524524
	2.512365	2.520045
	2.511725	2.518445
	2.508525	2.517805
	2.503726	2.518445
	2.505646	2.520045
	2.504366	2.523564
	2.501806	2.525164
	2.501166	2.527404
	2.505966	2.530284
	2.498286	2.529004
	2.497646	2.527084
	2.496686	2.524844
	2.496686	2.522604
	2.503086	2.520045
	2.498286	2.515245
	2.501486	2.510765
	2.501486	2.507885
	2.506606	2.504686
	2.511725	2.520685
	2.512685	2.500526
	2.516845	2.499886
	2.522284	2.496686
	2.528684	2.496366
	2.534124	2.495406
	2.539243	2.503726
	2.545003	2.493167
	2.550762	2.492527
	2.572201	2.491887
	2.557482	2.493167
	2.558442	2.497326
	2.557802	2.500206
	2.557162	2.504686
	2.561642	2.510445
	2.548842	2.515885
	2.545643	2.521324
	2.541803	2.527724
	2.537643	2.532204
	2.536683	2.535403
	2.532524	2.538283
	2.530604	2.539243
	2.530284	2.536363
	2.530924	2.531884
	2.534764	2.529964
	2.534444	2.525164
	2.537643	2.518765
	2.542123	2.514285
	2.548203	2.508525
	2.561642	2.505006
	2.553642	2.502126
	2.588840	2.499246
	2.701791	2.495406
	2.682593	2.494446
	2.612518	2.491887
	2.618597	2.492207
	2.602279	2.492527
	2.736349	2.494766
	2.688992	2.498606
	2.553962	2.504686
	2.565161	2.511405
	2.543723	2.521324
	2.602919	2.529644
	2.576680	2.539243
	2.531564	2.548842
	2.529644	2.555242
	2.521644	2.562601
	2.546923	2.567081
	2.535083	2.570281
	2.504046	2.570601
	2.500526	2.570921
	2.494766	2.573161
	2.503726	2.565481
	2.497966	2.561002
	2.506606	2.555882
	2.484527	2.553642
	2.484527	2.548842
	2.492527	2.544683
	2.501486	2.543083
	2.509805	2.540843
	2.497006	2.539883
	2.501806	2.539243
	2.507246	2.538603
	2.514925	2.537643
	2.525484	2.536363
	2.516205	2.533804
	2.517485	2.531884
	2.518765	2.526444
	2.522924	2.522604
	2.530924	2.519405
	2.531244	2.516525
	2.530604	2.514925
	2.533484	2.514285
	2.536363	2.516525
	2.545323	2.519405
	2.545003	2.522604
	2.546923	2.528684
	2.548203	2.534124
	2.545643	2.539563
	2.544683	2.544043
	2.540843	2.545643
	2.539243	2.547563
	2.527404	2.549162
	2.520685	2.566761
	2.519405	2.552362
	2.511405	2.555242
	2.522284	2.560042
	2.501166	2.565801
	2.505326	2.572841
	2.572201	2.582440
	2.557482	2.592679
	2.576041	2.600679
	2.537643	2.606758
	2.503726	2.610918
	2.521005	2.611878
	2.553322	2.609958
	2.548203	2.605158
	2.529644	2.597159
	2.522924	2.585640
	2.522604	2.574761
	2.520045	2.564201
	2.539243	2.553962
	2.539243	2.545003
	2.538923	2.540523
	2.537963	2.538283
	2.538603	2.542123
	2.568681	2.546283
	2.550442	2.554282
	2.552042	2.563241
	2.552362	2.572521
	2.554922	2.580840
	2.554602	2.587240
	2.566441	2.594279
	2.566121	2.597799
	2.566441	2.600679
	2.568361	2.602599
	2.568681	2.603559
	2.571241	2.605798
	2.578600	2.608038
	2.577960	2.609318
	2.580840	2.612198
	2.579560	2.614438
	2.579560	2.614118
	2.580520	2.613798
	2.582440	2.608678
	2.581480	2.603559
	2.580840	2.596519
	2.577320	2.587240
	2.573801	2.577960
	2.569961	2.567721
	2.567721	2.559402
	2.561322	2.550122
	2.556522	2.543723
	2.551722	2.536683
	2.543083	2.532844
	2.537963	2.528684
	2.535403	2.528684
	2.530284	2.527084
	2.526444	2.525804
	2.523564	2.525804
	2.521005	2.526764
	2.518445	2.525484
	2.520045	2.524524
	2.519085	2.523564
	2.520045	2.521005
	2.521644	2.518445
	2.546923	2.515565
	2.523564	2.511725
	2.525804	2.507885
	2.527724	2.503086
	2.529004	2.499886
	2.530604	2.497646
	2.560682	2.496686
	2.530924	2.497966
	2.532204	2.501166
	2.532524	2.507565
	2.531884	2.517805
	2.531564	2.533484
	2.531244	2.552042
	2.529644	2.574441
	2.530604	2.601319
	2.531884	2.631077
	2.533484	2.661474
	2.535723	2.688992
	2.538603	2.713311
	2.541163	2.731869
	2.545963	2.743388
	2.552042	2.747548
	2.555562	2.744668
	2.562921	2.736989
	2.569961	2.726430
	2.577960	2.715230
	2.584680	2.723230
	2.592039	2.696032
	2.599719	2.689952
	2.608358	2.684833
	2.613478	2.682913
	2.616678	2.678753
	2.621797	2.672674
	2.616358	2.675553
	2.614438	2.651235
	2.609318	2.637796
	2.606118	2.619557
	2.603239	2.601319
	2.600359	2.583400
	2.596839	2.568041
	2.596839	2.555882
	2.598119	2.547563
	2.599719	2.543723
	2.602919	2.542763
	2.605798	2.542763
	2.608038	2.544363
	2.608998	2.545003
	2.607078	2.544363
	2.604198	2.540203
	2.599079	2.533804
	2.592679	2.528684
	2.588520	2.522604
	2.577640	2.515565
	2.571241	2.512365
	2.563561	2.511405
	2.556522	2.515245
	2.552042	2.521964
	2.546283	2.531884
	2.542763	2.540843
	2.543403	2.548203
	2.538283	2.564201
	2.537963	2.559402
	2.537323	2.556842
	2.536043	2.548842
	2.536043	2.538603
	2.534444	2.524524
	2.535083	2.509805
	2.532524	2.495406
	2.530284	2.483887
	2.530924	2.476528
	2.529644	2.473008
	2.529644	2.472368
	2.529644	2.474928
	2.528684	2.484527
	2.527724	2.499566
	2.524524	2.501806
	2.522604	2.511085
	2.518765	2.519085
	2.512365	2.522924
	2.505646	2.524844
	2.496686	2.524524
	2.489327	2.524524
	2.481007	2.523564
	2.470768	2.526444
	2.461169	2.532844
	2.454449	2.542123
	2.449650	2.556202
	2.444530	2.573481
	2.441010	2.591399
	2.438770	2.611238
	2.437491	2.629157
	2.437811	2.640676
	2.438450	2.648355
	2.441650	2.650915
	2.443570	2.646755
	2.448050	2.638436
	2.462129	2.625317
	2.456049	2.609318
	2.459249	2.592999
	2.468848	2.576360
	2.476528	2.560362
	2.483887	2.546923
	2.490927	2.535083
	2.499566	2.525164
	2.538923	2.515565
	2.515885	2.508525
	2.519085	2.499566
	2.524204	2.494126
	2.528364	2.486767
	2.533484	2.480687
	2.536363	2.476208
	2.538923	2.473008
	2.543083	2.473008
	2.545003	2.477808
	2.546283	2.479408
	2.547883	2.490287
	2.549482	2.499886
	2.548203	2.510125
	2.547243	2.518445
	2.545323	2.527404
	2.543083	2.531564
	2.538283	2.534124
	2.532844	2.534124
	2.527724	2.532844
	2.521644	2.531244
	2.517165	2.529644
	2.512685	2.529644
	2.507885	2.531564
	2.508525	2.535403
	2.508525	2.540843
	2.499886	2.548842
	2.497966	2.555882
	2.497326	2.564521
	2.496366	2.572521
	2.497326	2.577320
	2.495406	2.579560
	2.494766	2.580520
	2.494446	2.584040
	2.493806	2.576360
	2.492527	2.572841
	2.491567	2.570921
	2.493487	2.569641
	2.493806	2.568681
	2.494446	2.569001
	2.497646	2.571561
	2.499246	2.575401
	2.508205	2.579240
	2.506926	2.582120
	2.512685	2.583720
	2.517165	2.582760
	2.520045	2.578920
	2.524204	2.574441
	2.525164	2.567081
	2.529004	2.558442
	2.559082	2.549802
	2.531244	2.541483
	2.531564	2.534764
	2.532524	2.529644
	2.533484	2.528684
	2.533164	2.529004
	2.535083	2.532204
	2.536043	2.536363
	2.537323	2.541803
	2.538603	2.543403
	2.539563	2.552362
	2.541483	2.555882
	2.543403	2.560042
	2.545323	2.561642
	2.546923	2.561962
	2.549482	2.563561
	2.553002	2.564841
	2.555882	2.566441
	2.559402	2.568681
	2.563881	2.567721
	2.566761	2.568681
	2.571561	2.567401
	2.575721	2.566121
	2.578920	2.561962
	2.581800	2.555562
	2.582440	2.548842
	2.580200	2.537323
	2.578600	2.548523
	2.574761	2.516845
	2.570921	2.507885
	2.568041	2.498286
	2.559722	2.491887
	2.557802	2.485487
	2.552362	2.483567
	2.547563	2.483887
	2.545963	2.482607
	2.551402	2.484207
	2.540203	2.483247
	2.538923	2.481647
	2.539243	2.480687
	2.537963	2.474288
	2.537643	2.473008
	2.538283	2.466928
	2.538603	2.461489
	2.538923	2.457009
	2.540843	2.452209
	2.539563	2.447730
	2.539563	2.446450
	2.541483	2.446770
	2.542763	2.447410
	2.544043	2.450930
	2.545323	2.455089
	2.547243	2.455729
	2.548842	2.458609
	2.560042	2.460849
	2.548203	2.461489
	2.547243	2.461169
	2.545963	2.463729
	2.541803	2.468848
	2.536363	2.476528
	2.534124	2.489967
	2.527404	2.506926
	2.520045	2.530604
	2.514925	2.558122
	2.504686	2.585320
	2.501166	2.613478
	2.492847	2.641316
	2.485167	2.664034
	2.477488	2.681313
	2.471088	2.691872
	2.467248	2.694752
	2.459569	2.692192
	2.453809	2.685473
	2.446770	2.673313
	2.439730	2.662434
	2.436851	2.654115
	2.432371	2.646435
	2.429171	2.645475
	2.426611	2.648995
	2.427251	2.656355
	2.427891	2.666914
	2.430131	2.678433
	2.432691	2.689952
	2.436211	2.698912
	2.440370	2.704351
	2.444210	2.706591
	2.449330	2.706271
	2.451890	2.702111
	2.457969	2.696672
	2.461489	2.688992
	2.468528	2.680673
	2.476848	2.671074
	2.485167	2.663074
	2.498286	2.656675
	2.506286	2.648035
	2.520045	2.641316
	2.532844	2.633956
	2.545643	2.627237
	2.557162	2.643236
	2.564521	2.613478
	2.574761	2.608038
	2.582120	2.604518
	2.587560	2.601959
	2.591719	2.600999
	2.591079	2.602279
	2.591079	2.603878
	2.589480	2.606118
	2.588520	2.609958
	2.582120	2.612198
	2.580200	2.612198
	2.575401	2.609638
	2.573481	2.603239
	2.569641	2.594599
	2.567401	2.584040
	2.567081	2.568681
	2.566441	2.553002
	2.581800	2.535083
	2.568681	2.518125
	2.570281	2.502766
	2.571241	2.489327
	2.571881	2.478448
	2.570281	2.468848
	2.567081	2.462449
	2.561642	2.457969
	2.556522	2.456369
	2.558122	2.455729
	2.542763	2.456369
	2.532844	2.459889
	2.524844	2.464689
	2.520685	2.472688
	2.512685	2.482607
	2.507246	2.497646
	2.502446	2.513005
	2.498286	2.532844
	2.498286	2.554282
	2.495086	2.573801
	2.493806	2.593959
	2.493487	2.608358
	2.492527	2.621157
	2.490607	2.626917
	2.489967	2.628517
	2.488047	2.624357
	2.485167	2.619877
	2.485167	2.603878
	2.484527	2.590439
	2.484527	2.576360
	2.487407	2.563241
	2.489007	2.549162
	2.494446	2.542123
	2.499886	2.537963
	2.506926	2.535403
	2.515885	2.534124
	2.523884	2.534444
	2.528044	2.534444
	2.533164	2.534444
	2.538923	2.532844
	2.541803	2.529004
	2.543403	2.526124
	2.542443	2.521324
	2.540523	2.516845
	2.538283	2.515565
	2.537003	2.515885
	2.534444	2.519085
	2.534124	2.526124
	2.533164	2.535403
	2.535083	2.545643
	2.537323	2.553962
	2.541163	2.562601
	2.543083	2.569321
	2.546283	2.570921
	2.548842	2.570921
	2.549162	2.568361
	2.546923	2.563241
	2.544363	2.560042
	2.538923	2.557162
	2.530924	2.560362
	2.524204	2.567721
	2.516525	2.580520
	2.512045	2.599399
	2.505006	2.624997
	2.500846	2.646755
	2.497966	2.671394
	2.496366	2.693792
	2.496046	2.712031
	2.494766	2.724510
	2.495726	2.732509
	2.495086	2.735709
	2.493487	2.735069
	2.493487	2.732189
	2.491567	2.726430
	2.489647	2.719070
	2.490287	2.711711
	2.493167	2.704351
	2.495086	2.695392
	2.502766	2.686433
	2.513645	2.675233
	2.525484	2.667234
	2.539883	2.661474
	2.550122	2.635556
	2.564201	2.616358
	2.578920	2.596519
	2.591719	2.574761
	2.599079	2.553002
	2.603878	2.534444
	2.609318	2.518445
	2.611878	2.503406
	2.610918	2.504046
	2.609958	2.486767
	2.609318	2.484847
	2.608678	2.486127
	2.608358	2.490927
	2.610598	2.496366
	2.613798	2.505966
	2.615078	2.515885
	2.617318	2.526124
	2.618917	2.536043
	2.616678	2.544683
	2.615398	2.550762
	2.606758	2.555562
	2.597479	2.558122
	2.586920	2.561002
	2.574441	2.560362
	2.565801	2.556202
	2.703711	2.552682
	2.544043	2.547883
	2.536043	2.542123
	2.530284	2.537963
	2.528044	2.536043
	2.525164	2.536363
	2.523244	2.539563
	2.520685	2.544043
	2.519725	2.552362
	2.517485	2.561002
	2.513965	2.570921
	2.509485	2.579880
	2.505646	2.586280
	2.502766	2.590759
	2.498926	2.592039
	2.497326	2.590119
	2.496366	2.587880
	2.497646	2.585640
	2.499246	2.579880
	2.503406	2.579880
	2.508205	2.579880
	2.515245	2.584040
	2.524844	2.590119
	2.536683	2.594919
	2.544683	2.599719
	2.558442	2.603559
	2.572841	2.606438
	2.587880	2.605798
	2.602599	2.602919
	2.610278	2.598759
	2.621157	2.594279
	2.629157	2.590439
	2.634596	2.587880
	2.635236	2.586920
	2.634276	2.589480
	2.707231	2.592039
	2.628517	2.595879
	2.622117	2.601319
	2.619237	2.605478
	2.617957	2.608678
	2.616358	2.611878
	2.615398	2.609318
	2.617957	2.609638
	2.618917	2.609318
	2.619877	2.603878
	2.621157	2.599399
	2.622437	2.595239
	2.620197	2.589800
	2.618917	2.583400
	2.617957	2.576360
	2.614438	2.570601
	2.609638	2.564521
	2.604838	2.558762
	2.600679	2.552042
	2.597799	2.548523
	2.594919	2.544363
	2.593639	2.543403
	2.591079	2.545963
	2.591399	2.550122
	2.591079	2.554602
	2.590439	2.564201
	2.591399	2.571561
	2.590759	2.579880
	2.589800	2.601319
	2.587880	2.604838
	2.585000	2.673953
	2.581480	2.636196
	2.577000	2.621157
	2.572521	2.622757
	2.566121	2.603878
	2.557802	2.596519
	2.551722	2.579560
	2.545323	2.578280
	2.539563	2.625957
	2.532844	2.601319
	2.526444	2.616038
	2.519405	2.590759
	2.513645	2.595239
	2.508845	2.595879
	2.502766	2.616998
	2.495726	2.600999
	2.488687	2.607398
	2.481007	2.625637
	2.476208	2.632036
	2.468848	2.642596
	2.461169	2.644196
	2.454449	2.652515
	2.448690	2.659234
	2.444530	2.689632
	2.439410	2.663074
	2.437811	2.664354
	2.436531	2.664354
	2.436211	2.658275
	2.434931	2.650595
	2.436851	2.638436
	2.439090	2.631077
	2.443250	2.624997
	2.450290	2.621477
	2.455089	2.617318
	2.465329	2.618277
	2.475568	2.621797
	2.487087	2.621797
	2.498926	2.623077
	2.506606	2.619557
	2.516845	2.616678
	2.525164	2.609638
	2.531244	2.628517
	2.535403	2.589800
	2.535723	2.579880
	2.535083	2.569641
	2.531244	2.558442
	2.526764	2.547883
	2.520045	2.535403
	2.514605	2.529324
	2.508205	2.525164
	2.501486	2.521644
	2.496046	2.521324
	2.490927	2.524524
	2.487727	2.529964
	2.482287	2.535723
	2.476848	2.542443
	2.475888	2.548842
	2.473968	2.554922
	2.471408	2.559722
	2.469168	2.565481
	2.466928	2.567081
	2.465329	2.568681
	2.465649	2.569001
	2.467248	2.570921
	2.470768	2.567721
	2.478128	2.570921
	2.488047	2.572841
	2.494766	2.575081
	2.509805	2.579560
	2.524524	2.586280
	2.540523	2.672354
	2.556522	2.600679
	2.566121	2.610598
	2.576680	2.619877
	2.587560	2.628197
	2.592359	2.634596
	2.595239	2.639716
	2.598119	2.640676
	2.600679	2.637476
	2.602599	2.633316
	2.605798	2.625957
	2.613158	2.616358
	2.617957	2.605158
	2.627237	2.593959
	2.638756	2.583720
	2.648355	2.573801
	2.659234	2.565481
	2.666594	2.558442
	2.669154	2.553002
	2.671714	2.547563
	2.671074	2.541483
	2.666594	2.534764
	2.663714	2.528684
	2.660194	2.521964
	2.654755	2.515245
	2.651875	2.508845
	2.651235	2.502126
	2.651235	2.496686
	2.651875	2.491247
	2.653795	2.488047
	2.653155	2.485807
	2.653795	2.483567
	2.651555	2.483567
	2.650275	2.480687
	2.643876	2.478128
	2.638116	2.492527
	2.629477	2.468208
	2.624677	2.461809
	2.617957	2.454769
	2.610598	2.446450
	2.604198	2.437491
	2.599399	2.429171
	2.601959	2.423092
	2.594279	2.418612
	2.592039	2.416372
	2.591079	2.415092
	2.591399	2.415732
	2.590119	2.418612
	2.587560	2.421172
	2.584360	2.425011
	2.579880	2.428531
	2.575401	2.432051
	2.568681	2.433331
	2.561642	2.434931
	2.553642	2.433651
	2.545323	2.435251
	2.540523	2.438131
	2.531884	2.439730
	2.525804	2.445170
	2.520045	2.450610
	2.514285	2.460209
	2.511085	2.465329
	2.504686	2.473648
	2.499886	2.481327
	2.494766	2.486447
	2.489007	2.490927
	2.485167	2.492207
	2.479088	2.493167
	2.472688	2.493167
	2.467568	2.496046
	2.461169	2.497646
	2.457969	2.501486
	2.453489	2.510445
	2.449010	2.522604
	2.447090	2.537963
	2.444530	2.555882
	2.443570	2.576041
	2.441970	2.595879
	2.441330	2.614758
	2.440370	2.631716
	2.441650	2.646115
	2.440690	2.657315
	2.442610	2.665954
	2.442290	2.672674
	2.447410	2.678113
	2.451250	2.684513
	2.545963	2.693152
	2.460209	2.701471
	2.467248	2.712991
	2.473648	2.724830
	2.481007	2.736989
	2.487087	2.747548
	2.493167	2.757467
	2.499246	2.764187
	2.505646	2.767067
	2.510765	2.767387
	2.514285	2.764187
	2.521005	2.756187
	2.528364	2.746908
	2.537003	2.734429
	2.545323	2.720350
	2.551082	2.704991
	2.556522	2.692512
	2.568681	2.680673
	2.569961	2.669794
	2.581800	2.662434
	2.572521	2.656675
	2.611878	2.651555
	2.624037	2.649315
	2.624357	2.648355
	2.618277	2.649315
	2.610918	2.649635
	2.556842	2.652195
	2.554602	2.653475
	2.544683	2.655075
	2.541163	2.656035
	2.597799	2.653795
	2.555562	2.651875
	2.560042	2.647395
	2.562601	2.643236
	2.564521	2.635236
	2.556842	2.624357
	2.561642	2.613798
	2.564201	2.600359
	2.569001	2.584680
	2.588200	2.570921
	2.580520	2.556522
	2.585640	2.543083
	2.585960	2.532524
	2.587560	2.523244
	2.585000	2.517165
	2.592039	2.511405
	2.582760	2.509805
	2.579240	2.510125
	2.584680	2.511085
	2.575401	2.513965
	2.571561	2.516205
	2.567081	2.516525
	2.561322	2.516525
	2.554282	2.514605
	2.555562	2.511725
	2.546603	2.507565
	2.542123	2.501486
	2.543723	2.495406
	2.537003	2.489967
	2.535403	2.484207
	2.532524	2.478448
	2.530924	2.475568
	2.531564	2.472048
	2.537963	2.469168
	2.535723	2.481007
	2.538283	2.466288
	2.545963	2.462449
	2.548842	2.459569
	2.554602	2.459569
	2.558122	2.458289
	2.562601	2.457009
	2.565481	2.457009
	2.585960	2.460209
	2.568681	2.465329
	2.569961	2.470768
	2.569641	2.477488
	2.566441	2.487087
	2.565801	2.496366
	2.564201	2.505646
	2.562921	2.511725
	2.561322	2.519725
	2.593639	2.525164
	2.556522	2.528364
	2.559402	2.531244
	2.553322	2.534764
	2.550122	2.536043
	2.547243	2.539883
	2.545643	2.543723
	2.542763	2.548842
	2.541483	2.553322
	2.559722	2.559402
	2.543723	2.564201
	2.547883	2.567401
	2.550122	2.569961
	2.553642	2.569961
	2.558762	2.567081
	2.561962	2.561002
	2.566121	2.554922
	2.567721	2.546603
	2.569961	2.538603
	2.564201	2.533804
	2.561322	2.529644
	2.556842	2.525484
	2.553002	2.525484
	2.544683	2.527724
	2.539563	2.532524
	2.536043	2.536683
	2.533804	2.542123
	2.532844	2.547243
	2.532204	2.553322
	2.532524	2.552362
	2.533484	2.553322
	2.536363	2.551722
	2.537003	2.546923
	2.539243	2.547243
	2.538923	2.543403
	2.538283	2.541803
	2.538283	2.540523
	2.538603	2.541483
	2.538603	2.542123
	2.540843	2.541803
	2.544043	2.544043
	2.549482	2.544043
	2.553002	2.543403
	2.562601	2.539883
	2.573481	2.534764
	2.581160	2.529004
	2.587240	2.521324
	2.592039	2.512045
	2.594599	2.504046
	2.593639	2.496046
	2.588840	2.489327
	2.581160	2.484527
	2.573801	2.481647
	2.563241	2.481327
	2.552682	2.482287
	2.541803	2.484527
	2.531564	2.489327
	2.525164	2.492847
	2.516525	2.497966
	2.509485	2.501166
	2.503086	2.505966
	2.497646	2.509485
	2.493806	2.510765
	2.488367	2.512685
	2.492527	2.514605
	2.477808	2.517165
	2.471408	2.518125
	2.469168	2.521005
	2.465649	2.524844
	2.461809	2.526124
	2.462129	2.529324
	2.462129	2.531564
	2.462449	2.533484
	2.465649	2.535083
	2.469488	2.535083
	2.472688	2.535723
	2.476208	2.536683
	2.477168	2.536683
	2.479728	2.535723
	2.482287	2.535403
	2.484847	2.535403
	2.487727	2.535083
	2.512365	2.533804
	2.496686	2.533484
	2.504366	2.531884
	2.516525	2.529644
	2.531564	2.525804
	2.540523	2.523244
	2.558762	2.520045
	2.577320	2.515885
	2.596199	2.511085
	2.620837	2.506606
	2.621477	2.502446
	2.632996	2.499246
	2.640996	2.496366
	2.642916	2.495726
	2.643556	2.495406
	2.637156	2.495406
	2.628837	2.496366
	2.616998	2.497646
	2.605798	2.500846
	2.596839	2.505006
	2.584040	2.509165
	2.573801	2.516845
	2.564521	2.524524
	2.557162	2.537643
	2.552682	2.551082
	2.549482	2.566121
	2.545003	2.581160
	2.545643	2.595559
	2.545003	2.608038
	2.545323	2.616998
	2.547243	2.623397
	2.547243	2.624677
	2.548842	2.623077
	2.550122	2.617318
	2.550762	2.606438
	2.553322	2.595239
	2.555882	2.583080
	2.557482	2.569961
	2.561962	2.558122
	2.563561	2.550122
	2.571881	2.542443
	2.577640	2.538283
	2.586600	2.535083
	2.594279	2.531884
	2.600359	2.529964
	2.609958	2.526124
	2.616998	2.521324
	2.622437	2.514925
	2.626597	2.508845
	2.628517	2.502126
	2.627877	2.495406
	2.625637	2.489967
	2.621477	2.489647
	2.616998	2.494446
	2.613798	2.497326
	2.608998	2.508845
	2.603559	2.523244
	2.600999	2.537323
	2.599399	2.553642
	2.600999	2.566441
	2.601639	2.578280
	2.602919	2.584680
	2.603239	2.590119
	2.603878	2.587560
	2.603239	2.585960
	2.602599	2.584040
	2.599719	2.579560
	2.594279	2.577000
	2.587880	2.576360
	2.585000	2.573801
	2.578280	2.572841
	2.651235	2.573481
	2.564201	2.574121
	2.557162	2.573801
	2.553962	2.573801
	2.548203	2.573161
	2.544043	2.573161
	2.541163	2.571881
	2.538283	2.571561
	2.556522	2.571881
	2.536683	2.573161
	2.537003	2.575401
	2.538923	2.576360
	2.540203	2.579240
	2.541803	2.582760
	2.545963	2.585640
	2.551402	2.584040
	2.555882	2.584040
	2.560362	2.580520
	2.567401	2.576041
	2.576680	2.568681
	2.585320	2.560682
	2.597159	2.551722
	2.605158	2.542443
	2.618277	2.534764
	2.629477	2.527084
	2.639716	2.519405
	2.648035	2.513325
	2.651235	2.505966
	2.654755	2.499566
	2.655715	2.493487
	2.653475	2.488047
	2.648035	2.483887
	2.643876	2.481327
	2.637796	2.483247
	2.631716	2.490287
	2.625637	2.501166
	2.620837	2.516205
	2.619877	2.535083
	2.617318	2.558762
	2.615078	2.582760
	2.614758	2.609958
	2.611878	2.636836
	2.608998	2.663394
	2.604518	2.687392
	2.596839	2.708511
	2.589800	2.725790
	2.578280	2.737309
	2.572521	2.742748
	2.562282	2.742748
	2.551722	2.736989
	2.542443	2.729309
	2.534764	2.717790
	2.530284	2.704351
	2.525804	2.689632
	2.521964	2.677153
	2.521324	2.665314
	2.521644	2.654755
	2.521644	2.647075
	2.523884	2.640676
	2.525804	2.637796
	2.527724	2.635236
	2.531564	2.635236
	2.532524	2.638756
	2.535723	2.643876
	2.535403	2.650595
	2.537643	2.659554
	2.538603	2.670434
	2.536683	2.680033
	2.536043	2.689632
	2.534124	2.698592
	2.531884	2.702751
	2.529004	2.703071
	2.527404	2.701791
	2.525804	2.696032
	2.522284	2.687392
	2.517485	2.674913
	2.517805	2.661154
	2.516205	2.649955
	2.514285	2.636516
	2.514285	2.624997
	2.514925	2.620517
	2.515245	2.615398
	2.517165	2.615398
	2.519085	2.617638
	2.522604	2.622117
	2.527404	2.633956
	2.529004	2.644196
	2.533804	2.654435
	2.538603	2.666594
	2.541803	2.674273
	2.545643	2.682913
	2.547883	2.690592
	2.548203	2.697632
	2.549482	2.704031
	2.547883	2.709471
	2.549162	2.715550
	2.547883	2.721950
	2.547243	2.724830
	2.554282	2.727070
	2.549802	2.727390
	2.550762	2.724190
	2.554282	2.716830
	2.556842	2.704351
	2.560682	2.689952
	2.564201	2.672034
	2.568361	2.651555
	2.571561	2.629797
	2.575721	2.608998
	2.579880	2.590119
	2.585000	2.573801
	2.588200	2.562921
	2.590119	2.554282
	2.592679	2.552042
	2.592679	2.553322
	2.590439	2.556842
	2.586600	2.562921
	2.583720	2.569001
	2.577960	2.573801
	2.570921	2.578920
	2.565481	2.578280
	2.559402	2.575401
	2.556842	2.570601
	2.553322	2.562601
	2.550442	2.552682
	2.552042	2.560682
	2.553642	2.529324
	2.555242	2.516845
	2.559402	2.505006
	2.564841	2.494766
	2.569001	2.485167
	2.573801	2.478768
	2.575401	2.473968
	2.578600	2.471728
	2.578280	2.473328
	2.576360	2.473648
	2.572201	2.476528
	2.569321	2.479728
	2.561002	2.484527
	2.551082	2.488367
	2.542123	2.492527
	2.531564	2.498926
	2.523884	2.504046
	2.514285	2.510125
	2.505326	2.516205
	2.497966	2.523564
	2.490927	2.530284
	2.487727	2.536683
	2.481967	2.544363
	2.477808	2.549482
	2.472688	2.553962
	2.469168	2.559082
	2.478768	2.561322
	2.461169	2.562921
	2.457329	2.564841
	2.454129	2.563561
	2.450610	2.563241
	2.447410	2.562921
	2.446770	2.563561
	2.445810	2.562601
	2.448690	2.565801
	2.454129	2.567081
	2.458929	2.568681
	2.467568	2.570601
	2.480047	2.571561
	2.494126	2.570921
	2.507246	2.569001
	2.516205	2.566441
	2.531244	2.562282
	2.541803	2.570281
	2.553962	2.554282
	2.560682	2.550442
	2.565801	2.546603
	2.571241	2.542763
	2.575081	2.541483
	2.576360	2.542123
	2.577640	2.542123
	2.577960	2.543723
	2.579880	2.545643
	2.582120	2.546923
	2.584040	2.547883
	2.585640	2.546923
	2.587240	2.546923
	2.590759	2.545643
	2.589800	2.546283
	2.591719	2.546603
	2.591399	2.547883
	2.589160	2.550762
	2.587240	2.557162
	2.583720	2.566121
	2.579880	2.574761
	2.576360	2.584040
	2.570921	2.592999
	2.567081	2.600999
	2.565481	2.607078
	2.562282	2.610598
	2.561642	2.611558
	2.561002	2.609638
	2.562282	2.606118
	2.561642	2.599719
	2.563561	2.591719
	2.564521	2.585320
	2.565161	2.576680
	2.565161	2.569321
	2.562921	2.562921
	2.560362	2.561002
	2.560362	2.557162
	2.557802	2.555562
	2.553002	2.558762
	2.550122	2.563561
	2.544683	2.570601
	2.541163	2.580200
	2.535403	2.591079
	2.529004	2.601639
	2.523564	2.611878
	2.517805	2.621477
	2.514285	2.628197
	2.512045	2.632356
	2.511405	2.631716
	2.514605	2.628837
	2.521644	2.621477
	2.526444	2.612198
	2.536363	2.599719
	2.548203	2.586600
	2.561002	2.574761
	2.572521	2.562921
	2.580200	2.551082
	2.588840	2.544683
	2.597799	2.539243
	2.603559	2.535083
	2.608678	2.533484
	2.612838	2.532204
	2.616678	2.532524
	2.620837	2.531564
	2.623077	2.529644
	2.626597	2.529964
	2.630757	2.527724
	2.634276	2.526764
	2.638116	2.526764
	2.641956	2.527404
	2.643876	2.528364
	2.659874	2.531244
	2.647395	2.533484
	2.646755	2.537003
	2.646115	2.540203
	2.644196	2.540523
	2.641956	2.539563
	2.639076	2.538283
	2.635236	2.535083
	2.630117	2.544043
	2.628197	2.523564
	2.622117	2.518125
	2.616038	2.515565
	2.608038	2.513645
	2.600999	2.514605
	2.595559	2.517485
	2.587880	2.524844
	2.580840	2.532524
	2.573801	2.545643
	2.566121	2.549162
	2.561962	2.556202
	2.554922	2.557482
	2.547563	2.557162
	2.540203	2.553002
	2.534444	2.546603
	2.531564	2.538283
	2.526124	2.530924
	2.524524	2.524844
	2.527084	2.520045
	2.530604	2.519405
	2.536683	2.521324
	2.548203	2.526764
	2.564521	2.533484
	2.583080	2.538603
	2.603878	2.545003
	2.617957	2.549802
	2.638756	2.553962
	2.657635	2.554602
	2.670434	2.554282
	2.680993	2.549482
	2.684513	2.545963
	2.685793	2.541163
	2.681633	2.546283
	2.671714	2.561002
	2.657315	2.615398
	2.645795	2.586280
	2.625317	2.667234
	2.606758	2.750428
	2.581800	2.782106
	2.558122	3.018568
	2.545003	2.926415
	2.519405	3.033287
	2.496686	2.946894
	2.473328	3.152319
	2.453169	2.809304
	2.443890	2.746268
	2.425011	2.794585
	2.410293	2.753308
	2.400373	2.819223
	2.393654	2.744348
	2.392054	2.741788
	2.392054	2.703711
	2.396534	2.655715
	2.488367	2.639396
	2.447090	2.614758
	2.430451	2.620837
	2.449650	2.600679
	2.473968	2.619237
	2.498286	2.581800
	2.517485	2.579880
	2.545643	2.551082
	2.573481	2.530284
	2.605478	2.510445
	2.624037	2.493806
	2.638436	2.497966
	2.657955	2.482287
	2.673633	2.493487
	2.686113	2.475568
	2.695712	2.477808
	2.699552	2.467888
	2.704031	2.457969
	2.706591	2.453169
	2.706911	2.447730
	2.702431	2.453489
	2.698912	2.447090
	2.690272	2.457649
	2.680353	2.449010
	2.665634	2.453169
	2.649635	2.453489
	2.636516	2.454769
	2.616998	2.462449
	2.595879	2.471728
	2.576680	2.486767
	2.558122	2.496366
	2.547883	2.512045
	2.536683	2.518125
	2.528364	2.530924
	2.526124	2.535403
	2.527724	2.538923
	2.530604	2.542763
	2.538283	2.547563
	2.546923	2.576041
	2.557162	2.569961
	2.567081	2.609638
	2.574121	2.598759
	2.582440	2.608358
	2.592999	2.652515
	2.601639	2.613798
	2.612198	2.554602
	2.619237	2.560042
	2.628837	2.597479
	2.638756	2.611558
	2.647075	2.605798
	2.651875	2.609638
	2.655395	2.629477
	2.655715	2.642596
	2.650915	2.648035
	2.644516	2.643556
	2.633956	2.646435
	2.624997	2.657635
	2.613158	2.654435
	2.600359	2.644836
	2.590759	2.632676
	2.584680	2.627237
	2.582440	2.622437
	2.581480	2.611878
	2.584040	2.600679
	2.588840	2.594599
	2.591079	2.593319
	2.597159	2.585640
	2.604198	2.577000
	2.610598	2.565801
	2.616358	2.554282
	2.621797	2.542763
	2.627237	2.527724
	2.634916	2.507885
	2.641636	2.492207
	2.647395	2.479728
	2.652835	2.466928
	2.658915	2.457649
	2.666274	2.448690
	2.672034	2.444850
	2.676833	2.445490
	2.680033	2.448050
	2.682593	2.448050
	2.684193	2.452849
	2.681633	2.462769
	2.677473	2.468528
	2.672674	2.473968
	2.662434	2.477808
	2.649315	2.481647
	2.632356	2.488047
	2.612518	2.491567
	2.600039	2.494446
	2.580840	2.500206
	2.560682	2.506926
	2.541803	2.514605
	2.523884	2.523564
	2.512365	2.532204
	2.497326	2.543403
	2.483247	2.555882
	2.480047	2.569641
	2.457009	2.576680
	2.449010	2.586600
	2.438450	2.594279
	2.431411	2.599399
	2.423412	2.602599
	2.421172	2.603239
	2.418932	2.601959
	2.421172	2.593639
	2.436211	2.586920
	2.437491	2.576041
	2.447730	2.571881
	2.457329	2.554602
	2.471728	2.546283
	2.487087	2.538603
	2.502766	2.529644
	2.517485	2.526444
	2.529964	2.528044
	2.548203	2.533484
	2.565801	2.535723
	2.583400	2.544043
	2.600679	2.554282
	2.612198	2.565481
	2.626917	2.576360
	2.636836	2.584680
	2.643556	2.593319
	2.646435	2.597799
	2.645795	2.633316
	2.641956	2.600039
	2.635876	2.596519
	2.631397	2.594279
	2.626597	2.592359
	2.622437	2.592679
	2.626917	2.597799
	2.631077	2.604198
	2.638756	2.614758
	2.645795	2.643876
	2.653795	2.647715
	2.662754	2.664674
	2.668834	2.681633
	2.671714	2.694112
	2.669794	2.703071
	2.669794	2.704351
	2.665634	2.698272
	2.690272	2.686113
	2.653795	2.671074
	2.648675	2.648355
	2.645475	2.626917
	2.642276	2.607718
	2.640356	2.589800
	2.638116	2.574761
	2.636196	2.568041
	2.634276	2.561962
	2.645795	2.560682
	2.616998	2.561962
	2.604518	2.561322
	2.591719	2.561002
	2.580200	2.558442
	2.574441	2.554282
	2.600679	2.547243
	2.582440	2.540203
	2.646115	2.533164
	2.556842	2.525484
	2.599399	2.531884
	2.566441	2.518125
	2.632356	2.520045
	2.731549	2.523884
	2.694432	2.528044
	2.816983	2.534764
	2.745628	2.541483
	2.775706	2.545963
	2.670754	2.550122
	2.685473	2.561322
	2.705311	2.551402
	2.729949	2.549162
	2.767067	2.546603
	2.754268	2.545963
	2.790105	2.545003
	2.765147	2.546603
	2.773466	2.552682
	2.728029	2.560682
	2.722910	2.573481
	2.707551	2.591399
	2.701151	2.613158
	2.696032	2.636196
	2.673633	2.658275
	2.675553	2.676833
	2.648355	2.692192
	2.637156	2.699872
	2.604518	2.700511
	2.589480	2.693792
	2.576360	2.682593
	2.563881	2.665954
	2.552362	2.647395
	2.528684	2.629477
	2.519405	2.616038
	2.503086	2.607398
	2.493167	2.606118
	2.471088	2.610918
	2.465009	2.620837
	2.462449	2.635236
	2.465009	2.650595
	2.469808	2.666914
	2.474928	2.679393
	2.485167	2.686433
	2.488687	2.688352
	2.493487	2.687392
	2.493487	2.682593
	2.495726	2.675553
	2.497646	2.663714
	2.497646	2.654435
	2.500526	2.647715
	2.497646	2.642276
	2.499566	2.639076
	2.498926	2.636516
	2.512045	2.634276
	2.500206	2.631397
	2.511085	2.631397
	2.505966	2.665634
	2.561002	2.608038
	2.584040	2.595559
	2.559082	2.579880
	2.572201	2.562282
	2.550122	2.544683
	2.537963	2.526764
	2.577960	2.508845
	2.522924	2.493806
	2.520365	2.486127
	2.544363	2.468208
	2.541483	2.457649
	2.537323	2.449650
	2.545323	2.443890
	2.545003	2.439090
	2.548523	2.434611
	2.555242	2.434291
	2.555242	2.433011
	2.557482	2.436531
	2.567081	2.439730
	2.568681	2.446770
	2.566761	2.453809
	2.560362	2.460849
	2.552042	2.470128
	2.544683	2.478768
	2.535403	2.484847
	2.527084	2.490607
	2.519725	2.494446
	2.517485	2.496686
	2.512685	2.498606
	2.508205	2.499246
	2.505646	2.499566
	2.502766	2.501166
	2.502766	2.502766
	2.503726	2.504686
	2.507246	2.506926
	2.513005	2.510445
	2.513005	2.510125
	2.518445	2.511085
	2.521324	2.508845
	2.525164	2.504046
	2.524844	2.496686
	2.526124	2.490287
	2.525164	2.480047
	2.523564	2.470128
	2.524204	2.461489
	2.520045	2.453169
	2.521324	2.449010
	2.521644	2.445170
	2.524204	2.444210
	2.525164	2.446130
	2.531564	2.449970
	2.534124	2.456049
	2.542763	2.472048
	2.551402	2.467248
	2.558122	2.472368
	2.565161	2.478448
	2.570601	2.485167
	2.574121	2.491887
	2.578600	2.499886
	2.580840	2.509805
	2.584680	2.521324
	2.586920	2.547883
	2.590119	2.550762
	2.595239	2.566441
	2.599079	2.582760
	2.599399	2.599079
	2.606758	2.612838
	2.609318	2.623077
	2.612838	2.632036
	2.612198	2.635876
	2.611558	2.638436
	2.606758	2.637796
	2.598439	2.636836
	2.588520	2.636836
	2.576680	2.634916
	2.568041	2.640676
	2.554922	2.644516
	2.542443	2.650275
	2.532204	2.659234
	2.524524	2.671074
	2.521005	2.674593
	2.518445	2.680993
	2.518445	2.682273
	2.520685	2.680993
	2.522604	2.676193
	2.523884	2.668514
	2.529004	2.656355
	2.530604	2.641956
	2.532844	2.628837
	2.534444	2.614118
	2.535083	2.601319
	2.536363	2.591079
	2.537963	2.585320
	2.539883	2.581480
	2.543083	2.583080
	2.544043	2.584360
	2.549482	2.591079
	2.554922	2.599079
	2.561002	2.603878
	2.565801	2.610918
	2.568681	2.615718
	2.571881	2.619237
	2.573161	2.618597
	2.572201	2.618277
	2.569321	2.616678
	2.566761	2.615398
	2.559722	2.619557
	2.554602	2.614758
	2.547243	2.616998
	2.539883	2.619557
	2.537963	2.624037
	2.532844	2.625957
	2.527724	2.629157
	2.526124	2.630117
	2.524204	2.627877
	2.521644	2.630437
	2.519085	2.618597
	2.517805	2.609638
	2.516205	2.598439
	2.515885	2.587880
	2.515885	2.577960
	2.516845	2.568041
	2.518445	2.563241
	2.528364	2.558442
	2.524204	2.561642
	2.527724	2.560362
	2.532524	2.566761
	2.537643	2.575721
	2.540843	2.586280
	2.546283	2.599399
	2.547563	2.611238
	2.550442	2.623077
	2.558762	2.632996
	2.560042	2.640036
	2.566121	2.643556
	2.570281	2.644196
	2.577960	2.641316
	2.586280	2.635556
	2.595239	2.626597
	2.602279	2.615398
	2.609318	2.602599
	2.624677	2.588200
	2.626597	2.576041
	2.634276	2.562601
	2.640356	2.550122
	2.648035	2.540843
	2.655075	2.532844
	2.661794	2.528044
	2.666914	2.524524
	2.670434	2.524524
	2.673953	2.524204
	2.677473	2.525164
	2.677473	2.523884
	2.676833	2.523564
	2.674273	2.518765
	2.669474	2.513325
	2.663394	2.504686
	2.654435	2.493806
	2.644196	2.481647
	2.638116	2.469488
	2.628197	2.454769
	2.618277	2.442290
	2.610918	2.431091
	2.604838	2.422452
	2.600679	2.415412
	2.594919	2.409653
	2.592359	2.406773
	2.588840	2.403893
	2.584360	2.440370
	2.582120	2.401333
	2.577640	2.401333
	2.573161	2.401973
	2.565801	2.404853
	2.556842	2.408053
	2.551082	2.414772
	2.542763	2.422772
	2.533164	2.434611
	2.524524	2.447090
	2.517165	2.460209
	2.511725	2.475888
	2.505646	2.488047
	2.501166	2.500206
	2.497006	2.508845
	2.495086	2.513645
	2.495726	2.515245
	2.497646	2.513965
	2.497646	2.510445
	2.499886	2.504686
	2.500846	2.497966
	2.503086	2.491247
	2.507246	2.487087
	2.506926	2.484847
	2.509165	2.482287
	2.510445	2.481647
	2.511085	2.482927
	2.513325	2.483887
	2.511085	2.485487
	2.510125	2.488367
	2.508845	2.488367
	2.508845	2.488367
	2.505966	2.486767
	2.503406	2.485487
	2.500846	2.483567
	2.497646	2.482927
	2.496046	2.482287
	2.490287	2.483247
	2.486447	2.486447
	2.481327	2.489967
	2.471728	2.494126
	2.475888	2.497006
	2.472368	2.502766
	2.471408	2.506286
	2.478128	2.510125
	2.473648	2.514925
	2.475248	2.517805
	2.479728	2.520365
	2.486127	2.522924
	2.493806	2.520685
	2.500526	2.528044
	2.508525	2.530924
	2.519405	2.536363
	2.529964	2.543403
	2.544043	2.551722
	2.546923	2.559722
	2.557482	2.568681
	2.566761	2.578280
	2.576360	2.587880
	2.583400	2.594599
	2.586600	2.600039
	2.590439	2.606438
	2.590439	2.610918
	2.588200	2.613478
	2.584360	2.617318
	2.580200	2.622437
	2.572521	2.630757
	2.565481	2.639396
	2.557162	2.650595
	2.546923	2.662114
	2.540843	2.678753
	2.530604	2.698912
	2.521324	2.753308
	2.513325	2.741469
	2.502766	2.762907
	2.497326	2.782746
	2.487407	2.799064
	2.477488	2.815063
	2.468528	2.828502
	2.459249	2.837462
	2.453809	2.846101
	2.495086	2.878739
	2.440050	2.852820
	2.435251	2.852180
	2.431091	2.848021
	2.429491	2.838741
	2.430131	2.828822
	2.431731	2.813143
	2.435251	2.796185
	2.442290	2.776346
	2.447090	2.754268
	2.455409	2.733469
	2.465968	2.713311
	2.479088	2.695072
	2.493806	2.680353
	2.502446	2.667874
	2.515565	2.657955
	2.530924	2.650915
	2.540843	2.645156
	2.551082	2.638756
	2.555242	2.632036
	2.562601	2.625317
	2.568041	2.617318
	2.571241	2.606438
	2.574441	2.593639
	2.577000	2.580840
	2.579240	2.566761
	2.583720	2.550762
	2.588520	2.538603
	2.594599	2.525804
	2.599719	2.511725
	2.608038	2.500206
	2.616678	2.488047
	2.624677	2.476848
	2.633316	2.463729
	2.639396	2.452209
	2.646435	2.441010
	2.650275	2.429171
	2.653795	2.419892
	2.654435	2.411252
	2.655395	2.405173
	2.654755	2.401013
	2.652515	2.398453
	2.649315	2.398773
	2.644516	2.401013
	2.640676	2.404533
	2.636196	2.407413
	2.630757	2.411892
	2.623717	2.416052
	2.617318	2.420212
	2.611238	2.422132
	2.604518	2.425651
	2.594919	2.430131
	2.586920	2.433651
	2.584040	2.437491
	2.573161	2.441650
	2.565801	2.447730
	2.560042	2.450930
	2.551722	2.453489
	2.549162	2.457009
	2.544043	2.459569
	2.539243	2.459889
	2.538283	2.459249
	2.537643	2.457329
	2.538283	2.453169
	2.538603	2.449010
	2.540203	2.443250
	2.542443	2.436851
	2.544683	2.432051
	2.545003	2.426291
	2.545643	2.424052
	2.546283	2.434291
	2.546283	2.422452
	2.544683	2.425011
	2.541803	2.429811
	2.537643	2.433971
	2.532844	2.441650
	2.528684	2.450290
	2.522284	2.459249
	2.518445	2.469808
	2.511405	2.480687
	2.504366	2.489647
	2.497326	2.498926
	2.489647	2.507885
	2.485167	2.517165
	2.477488	2.524204
	2.473008	2.532524
	2.468528	2.540523
	2.465009	2.549802
	2.464369	2.559402
	2.463089	2.568041
	2.465329	2.579240
	2.465649	2.590119
	2.469168	2.600679
	2.470448	2.610598
	2.474288	2.620197
	2.478128	2.629797
	2.481007	2.636836
	2.650915	2.642276
	2.487087	2.648355
	2.490927	2.651235
	2.496686	2.657635
	2.504046	2.662434
	2.509485	2.666914
	2.515245	2.670434
	2.523564	2.672674
	2.534444	2.675553
	2.576360	2.675553
	2.551722	2.673633
	2.558442	2.669154
	2.568361	2.662434
	2.577960	2.652515
	2.587240	2.641316
	2.595239	2.628837
	2.599719	2.617318
	2.606118	2.605798
	2.619237	2.595559
	2.614118	2.588840
	2.612838	2.581480
	2.613478	2.576360
	2.610918	2.572201
	2.605798	2.570601
	2.600359	2.569001
	2.596199	2.568361
	2.591719	2.569001
	2.590759	2.571241
	2.581480	2.573481
	2.579880	2.578600
	2.578600	2.582440
	2.577320	2.590439
	2.577960	2.595879
	2.578920	2.603239
	2.579880	2.609318
	2.578280	2.613158
	2.578920	2.614118
	2.578600	2.614118
	2.578280	2.610918
	2.578280	2.604518
	2.577640	2.593319
	2.577320	2.587560
	2.577000	2.579560
	2.577000	2.571561
	2.578280	2.736029
	2.578600	2.563561
	2.578600	2.562921
	2.578920	2.564521
	2.578920	2.567721
	2.577640	2.572201
	2.577000	2.577000
	2.576680	2.583080
	2.575721	2.586920
	2.575081	2.600679
	2.574761	2.591079
	2.574761	2.590439
	2.574441	2.589800
	2.577640	2.587560
	2.580200	2.586920
	2.583720	2.585000
	2.584680	2.584680
	2.588520	2.583400
	2.588840	2.588520
	2.587240	2.587880
	2.584680	2.590119
	2.581480	2.590759
	2.573481	2.591719
	2.564521	2.590439
	2.553002	2.588840
	2.542443	2.582760
	2.534124	2.576041
	2.525484	2.565801
	2.518765	2.553002
	2.515885	2.539243
	2.517165	2.524524
	2.522284	2.509805
	2.532524	2.495406
	2.546283	2.481967
	2.563881	2.470128
	2.583400	2.457329
	2.596199	2.445810
	2.614118	2.434611
	2.629477	2.424052
	2.640996	2.412532
	2.647075	2.402933
	2.648995	2.391734
	2.647395	2.381175
	2.643556	2.371255
	2.636516	2.363256
	2.631716	2.357496
	2.621797	2.353657
	2.613158	2.352697
	2.609318	2.353977
	2.606758	2.358136
	2.607718	2.362936
	2.610598	2.368376
	2.616998	2.372855
	2.624997	2.380535
	2.635236	2.380855
	2.641956	2.383095
	2.651875	2.385654
	2.659874	2.386934
	2.667234	2.389494
	2.670114	2.391414
	2.671074	2.393334
	2.668514	2.397493
	2.662434	2.403253
	2.656675	2.408693
	2.644516	2.414772
	2.635876	2.421492
	2.622117	2.426931
	2.608358	2.433651
	2.595559	2.438450
	2.584040	2.443890
	2.575401	2.448050
	2.565801	2.451570
	2.558122	2.455729
	2.551402	2.460529
	2.544683	2.465649
	2.545963	2.472048
	2.545643	2.478448
	2.549162	2.485807
	2.555242	2.491567
	2.561002	2.496686
	2.566121	2.502126
	2.574441	2.507565
	2.584040	2.513645
	2.591719	2.520685
	2.599719	2.529324
	2.604838	2.540523
	2.608678	2.551402
	2.611238	2.564201
	2.612518	2.733149
	2.609318	2.586280
	2.608358	2.593319
	2.603239	2.597479
	2.596199	2.596839
	2.587240	2.591719
	2.578280	2.584680
	2.570601	2.574441
	2.560042	2.563241
	2.548203	2.558442
	2.537323	2.541163
	2.527084	2.533484
	2.520685	2.526124
	2.511725	2.523564
	2.506286	2.522604
	2.501166	2.524844
	2.497966	2.528044
	2.497646	2.529964
	2.497646	2.539563
	2.499886	2.531564
	2.501486	2.542763
	2.505966	2.619557
	2.510445	2.602599
	2.516845	2.605478
	2.522604	2.585960
	2.530604	2.512365
	2.536043	2.516205
	2.545323	2.497646
	2.553322	2.492847
	2.563241	2.509165
	2.572201	2.500526
	2.578920	2.509485
	2.585960	2.512365
	2.592359	2.516525
	2.596199	2.500846
	2.597799	2.505966
	2.596839	2.505646
	2.594919	2.505966
	2.590119	2.514605
	2.580840	2.515565
	2.570921	2.522604
	2.564521	2.524524
	2.552682	2.527404
	2.543083	2.524204
	2.534444	2.528364
	2.527084	2.532204
	2.523564	2.534444
	2.519725	2.542763
	2.517485	2.544683
	2.519085	2.549162
	2.520685	2.549162
	2.519725	2.549802
	2.520365	2.547563
	2.521324	2.547563
	2.520685	2.548523
	2.519405	2.549482
	2.517485	2.656035
	2.514285	2.554922
	2.510765	2.558122
	2.504366	2.561642
	2.503086	2.564841
	2.501166	2.564841
	2.497006	2.569001
	2.630117	2.571241
	2.492207	2.573801
	2.491567	2.579560
	2.491567	2.578280
	2.491247	2.580520
	2.490607	2.578920
	2.492207	2.582440
	2.491567	2.580840
	2.493487	2.580200
	2.510445	2.580200
	2.492207	2.578600
	2.492207	2.577640
	2.491567	2.572521
	2.489967	2.570601
	2.486767	2.566441
	2.484527	2.562282
	2.481647	2.556842
	2.479408	2.553322
	2.483887	2.551402
	2.476528	2.547883
	2.475248	2.545963
	2.472688	2.544683
	2.472048	2.542763
	2.471088	2.541483
	2.471088	2.539243
	2.470448	2.537323
	2.469488	2.536043
	2.472368	2.531884
	2.471088	2.526124
	2.471728	2.522284
	2.474288	2.516525
	2.476848	2.512045
	2.482287	2.507246
	2.486127	2.502766
	2.490927	2.498606
	2.498286	2.497646
	2.507565	2.496046
	2.513005	2.496686
	2.520045	2.498926
	2.527724	2.500846
	2.533484	2.503086
	2.539563	2.504366
	2.542443	2.505646
	2.545323	2.506286
	2.548842	2.506606
	2.549162	2.506926
	2.553322	2.505646
	2.553642	2.505006
	2.557802	2.503086
	2.561322	2.502446
	2.562921	2.503086
	2.568681	2.504046
	2.571241	2.505646
	2.576041	2.509485
	2.580200	2.515885
	2.584360	2.520685
	2.584680	2.526124
	2.585640	2.530604
	2.585640	2.535723
	2.584360	2.539243
	2.583720	2.540843
	2.580520	2.542763
	2.579240	2.544043
	2.576041	2.542763
	2.573481	2.545003
	2.571561	2.540523
	2.570601	2.540203
	2.569321	2.539883
	2.569321	2.539243
	2.568681	2.538923
	2.566761	2.538923
	2.604198	2.538283
	2.567401	2.537003
	2.565801	2.535083
	2.567721	2.531564
	2.569961	2.529644
	2.570921	2.527084
	2.575081	2.525164
	2.580520	2.522604
	2.589160	2.521964
	2.595879	2.525484
	2.604518	2.525164
	2.608678	2.529644
	2.615398	2.533164
	2.619877	2.538603
	2.620517	2.538923
	2.621157	2.545323
	2.618597	2.547563
	2.654435	2.548203
	2.605798	2.561962
	2.598759	2.541803
	2.589480	2.537963
	2.584680	2.532204
	2.579560	2.525484
	2.575401	2.522284
	2.575081	2.515885
	2.577320	2.512365
	2.585960	2.509485
	2.583400	2.508525
	2.588840	2.506606
	2.592999	2.507246
	2.595239	2.507246
	2.595239	2.506606
	2.593959	2.506606
	2.588840	2.505006
	2.583400	2.504046
	2.579880	2.502446
	2.569641	2.501166
	2.559402	2.502446
	2.549162	2.499566
	2.539563	2.498606
	2.533164	2.498926
	2.523564	2.499246
	2.515245	2.501486
	2.507885	2.503726
	2.501486	2.505966
	2.495406	2.508845
	2.490607	2.513325
	2.484847	2.513965
	2.481647	2.516845
	2.481007	2.518765
	2.481647	2.521964
	2.482927	2.521644
	2.485487	2.524204
	2.490607	2.525164
	2.495086	2.526124
	2.499566	2.528044
	2.501806	2.528044
	2.503406	2.528684
	2.505326	2.528684
	2.501806	2.529964
	2.512365	2.532524
	2.497006	2.533484
	2.494446	2.536043
	2.484527	2.535723
	2.511725	2.537963
	2.564841	2.538603
	2.545643	2.539883
	2.482927	2.538923
	2.485487	2.538603
	2.475888	2.537323
	2.471408	2.534764
	2.466288	2.533804
	2.469488	2.532204
	2.487407	2.530284
	2.498286	2.529964
	2.500206	2.526764
	2.491567	2.525164
	2.495086	2.525804
	2.496686	2.526764
	2.499566	2.529324
	2.501486	2.531244
	2.520365	2.537003
	2.516525	2.542763
	2.524204	2.548203
	2.528044	2.554282
	2.524524	2.561962
	2.529004	2.565481
	2.557482	2.570281
	2.536683	2.575081
	2.541163	2.573801
	2.542443	2.572521
	2.545643	2.570281
	2.545963	2.565161
	2.545323	2.560042
	2.544363	2.554282
	2.549802	2.549162
	2.544683	2.544363
	2.545963	2.540523
	2.549162	2.534764
	2.548203	2.531564
	2.548842	2.528684
	2.550442	2.527724
	2.549162	2.527404
	2.548842	2.526124
	2.548203	2.525804
	2.546603	2.659554
	2.544043	2.526124
	2.542763	2.527404
	2.537003	2.525484
	2.531564	2.527404
	2.527724	2.527084
	2.524204	2.527724
	2.518765	2.528684
	2.513965	2.528684
	2.511405	2.527724
	2.506606	2.529004
	2.501806	2.527404
	2.497646	2.526124
	2.493487	2.525164
	2.491247	2.523564
	2.490287	2.521644
	2.490287	2.518445
	2.490927	2.514605
	2.492847	2.511405
	2.493806	2.506606
	2.496686	2.501806
	2.501806	2.496366
	2.503086	2.490287
	2.510445	2.483887
	2.514285	2.476528
	2.518765	2.471088
	2.526444	2.465968
	2.533804	2.462129
	2.549802	2.457329
	2.544043	2.453809
	2.551082	2.453169
	2.556842	2.452529
	2.560042	2.452529
	2.563241	2.453169
	2.564521	2.454769
	2.567081	2.456689
	2.563561	2.460209
	2.562601	2.463729
	2.559402	2.468528
	2.557482	2.473008
	2.554282	2.479728
	2.551082	2.486127
	2.560042	2.491567
	2.545323	2.589800
	2.546283	2.504366
	2.542763	2.510765
	2.543083	2.516525
	2.543723	2.519725
	2.546283	2.521644
	2.560682	2.525164
	2.551082	2.527724
	2.554602	2.529004
	2.558442	2.530284
	2.560362	2.532204
	2.563561	2.534444
	2.565161	2.536043
	2.567081	2.537003
	2.567401	2.537963
	2.566761	2.537003
	2.566441	2.536363
	2.565161	2.534124
	2.562282	2.532204
	2.560362	2.528044
	2.555242	2.525164
	2.555562	2.522284
	2.549482	2.520365
	2.545643	2.521005
	2.541803	2.521964
	2.538603	2.523244
	2.537643	2.526764
	2.535083	2.528044
	2.536043	2.530604
	2.535723	2.532204
	2.538603	2.533484
	2.539883	2.532844
	2.541803	2.532844
	2.543083	2.534124
	2.546603	2.536043
	2.545003	2.539243
	2.545323	2.542443
	2.546283	2.549482
	2.549482	2.554922
	2.553002	2.563881
	2.557162	2.586920
	2.563881	2.576360
	2.573161	2.580200
	2.584040	2.581160
	2.595239	2.579240
	2.603239	2.576041
	2.614758	2.603878
	2.623397	2.561642
	2.630757	2.554602
	2.633316	2.549802
	2.634276	2.547243
	2.630757	2.546283
	2.624677	2.549482
	2.615398	2.552682
	2.603878	2.557162
	2.595559	2.561322
	2.581800	2.564841
	2.568041	2.566121
	2.550762	2.565161
	2.536683	2.560682
	2.529004	2.553962
	2.516525	2.544363
	2.504046	2.533484
	2.494766	2.523244
	2.488367	2.514285
	2.487087	2.506606
	2.477488	2.500846
	2.475568	2.499246
	2.476208	2.498926
	2.479408	2.499566
	2.481967	2.503086
	2.487087	2.507246
	2.492207	2.511405
	2.497966	2.513645
	2.502446	2.515245
	2.504686	2.517165
	2.507885	2.517485
	2.509485	2.516205
	2.508525	2.514925
	2.506926	2.513325
	2.507565	2.510765
	2.505646	2.508525
	2.505006	2.507246
	2.503406	2.507565
	2.504046	2.505646
	2.502126	2.506926
	2.505006	2.506286
	2.505646	2.507885
	2.504046	2.507885
	2.503726	2.508525
	2.504686	2.509165
	2.501486	2.509485
	2.498286	2.508205
	2.494766	2.507246
	2.489647	2.506286
	2.501166	2.506606
	2.480047	2.504046
	2.472688	2.509165
	2.465968	2.513325
	2.458929	2.518765
	2.456049	2.526764
	2.449010	2.539243
	2.445810	2.553642
	2.443890	2.571881
	2.442290	2.590439
	2.442610	2.610278
	2.445810	2.629477
	2.447730	2.647075
	2.449330	2.660834
	2.450610	2.671074
	2.451890	2.679073
	2.453489	2.680673
	2.451890	2.678753
	2.449010	2.673313
	2.446130	2.664674
	2.442930	2.653795
	2.437491	2.642276
	2.435251	2.630117
	2.430131	2.617957
	2.429811	2.605798
	2.429491	2.594279
	2.430131	2.584360
	2.444850	2.576680
	2.439410	2.569001
	2.446770	2.561322
	2.456369	2.554922
	2.465329	2.547883
	2.477168	2.540843
	2.485807	2.534764
	2.490607	2.526764
	2.499566	2.521005
	2.505966	2.516205
	2.511405	2.514605
	2.516845	2.516205
	2.519085	2.513005
	2.523884	2.514925
	2.526764	2.516205
	2.529964	2.520365
	2.534764	2.523244
	2.537003	2.524524
	2.540523	2.525804
	2.543723	2.525804
	2.546923	2.523244
	2.548842	2.520685
	2.553322	2.515885
	2.556202	2.513645
	2.560682	2.510765
	2.565161	2.510125
	2.573481	2.513325
	2.578920	2.516525
	2.587240	2.520365
	2.596839	2.525164
	2.606758	2.529004
	2.616998	2.532524
	2.624677	2.535403
	2.632676	2.535083
	2.639396	2.532204
	2.645156	2.528044
	2.647715	2.521644
	2.648995	2.513005
	2.649635	2.504686
	2.645795	2.496046
	2.640676	2.488367
	2.635556	2.482927
	2.632036	2.478768
	2.623077	2.478768
	2.616678	2.480047
	2.609638	2.483567
	2.601639	2.487727
	2.598119	2.491247
	2.591399	2.497006
	2.585320	2.503086
	2.577000	2.506286
	2.570601	2.507565
	2.566121	2.539243
	2.560362	2.506286
	2.555242	2.504046
	2.547563	2.501166
	2.543723	2.497966
	2.540523	2.495086
	2.537003	2.490927
	2.534444	2.490927
	2.534124	2.493167
	2.533484	2.497326
	2.535723	2.504046
	2.536363	2.513325
	2.538603	2.521644
	2.539243	2.530604
	2.539563	2.539243
	2.537323	2.548203
	2.536043	2.554602
	2.532524	2.557162
	2.528044	2.559082
	2.524524	2.559402
	2.575081	2.559082
	2.516205	2.558122
	2.511405	2.557162
	2.510125	2.559082
	2.508525	2.562601
	2.508845	2.566441
	2.506926	2.571241
	2.507246	2.578280
	2.507246	2.583080
	2.506926	2.590119
	2.504686	2.591719
	2.504046	2.594919
	2.498926	2.597159
	2.493167	2.596839
	2.489647	2.593639
	2.483247	2.589800
	2.475888	2.585000
	2.469168	2.583400
	2.465009	2.580840
	2.461809	2.614438
	2.458929	2.579240
	2.456689	2.581160
	2.454129	2.582440
	2.459569	2.583720
	2.462769	2.585320
	2.465329	2.585000
	2.467248	2.583080
	2.470768	2.577640
	2.474928	2.573161
	2.476848	2.564201
	2.481647	2.555242
	2.487727	2.545003
	2.491887	2.536683
	2.498286	2.531564
	2.501166	2.519725
	2.508845	2.514285
	2.514605	2.509805
	2.521964	2.507565
	2.527404	2.504046
	2.531564	2.504046
	2.535403	2.502766
	2.538283	2.501806
	2.541163	2.652515
	2.540203	2.497966
	2.539883	2.495726
	2.539563	2.492207
	2.537643	2.486767
	2.535403	2.483567
	2.532524	2.481327
	2.527084	2.479408
	2.524204	2.477808
	2.520685	2.646435
	2.517165	2.478128
	2.513965	2.477488
	2.511085	2.477168
	2.509805	2.475248
	2.518125	2.473008
	2.507565	2.470448
	2.503726	2.466928
	2.504366	2.463409
	2.504046	2.461489
	2.503726	2.459569
	2.503726	2.457649
	2.502446	2.458609
	2.503086	2.460849
	2.503406	2.464049
	2.501166	2.468528
	2.499886	2.474608
	2.498286	2.482927
	2.497326	2.545963
	2.495726	2.497326
	2.495406	2.505966
	2.492527	2.514285
	2.492207	2.522284
	2.490287	2.530604
	2.489327	2.539883
	2.487087	2.548842
	2.487407	2.559402
	2.487407	2.571561
	2.486767	2.581800
	2.488047	2.596519
	2.489007	2.609318
	2.489647	2.646115
	2.489647	2.637156
	2.490927	2.648995
	2.491567	2.657955
	2.489967	2.664674
	2.489327	2.668514
	2.488367	2.667554
	2.485487	2.665314
	2.482607	2.658595
	2.483247	2.649955
	2.480687	2.639076
	2.482607	2.624997
	2.484527	2.611558
	2.490607	2.597799
	2.498606	2.585000
	2.507565	2.569961
	2.515565	2.557802
	2.524844	2.547243
	2.536043	2.532524
	2.547243	2.521644
	2.555242	2.511405
	2.559402	2.700511
	2.566441	2.495086
	2.567401	2.489647
	2.569321	2.485807
	2.568041	2.484207
	2.567721	2.484207
	2.565481	2.485167
	2.563881	2.489327
	2.562601	2.491247
	2.560682	2.493487
	2.558122	2.497966
	2.557802	2.501166
	2.554602	2.503086
	2.553962	2.505006
	2.552362	2.505966
	2.550762	2.506926
	2.550122	2.507246
	2.548842	2.508845
	2.547243	2.508205
	2.546603	2.508525
	2.545643	2.511085
	2.545643	2.513005
	2.547243	2.513005
	2.546923	2.513325
	2.546603	2.512045
	2.546603	2.514285
	2.547563	2.511085
	2.550122	2.509805
	2.548203	2.506606
	2.549162	2.506286
	2.549162	2.501166
	2.550122	2.497326
	2.548842	2.492527
	2.548842	2.489007
	2.547883	2.484847
	2.546603	2.480687
	2.545003	2.476208
	2.543083	2.474928
	2.541483	2.470448
	2.539563	2.467888
	2.538283	2.466288
	2.537323	2.464049
	2.536043	2.462449
	2.536043	2.461169
	2.536043	2.460529
	2.537643	2.461489
	2.538283	2.459889
	2.540523	2.460849
	2.541163	2.459889
	2.541803	2.461169
	2.540203	2.461169
	2.540523	2.462769
	2.538923	2.464049
	2.551402	2.466608
	2.533484	2.469168
	2.530924	2.473328
	2.527404	2.500206
	2.600359	2.483887
	2.520365	2.489327
	2.518765	2.496366
	2.515245	2.624677
	2.514285	2.512685
	2.509485	2.519405
	2.505326	2.526764
	2.502126	2.545963
	2.497966	2.536683
	2.492527	2.540203
	2.487727	2.543083
	2.482287	2.550122
	2.478128	2.546603
	2.471088	2.547243
	2.466928	2.547563
	2.463409	2.549482
	2.460209	2.547243
	2.457329	2.547243
	2.457329	2.548523
	2.457649	2.547883
	2.458289	2.547563
	2.460209	2.546603
	2.462129	2.546283
	2.465968	2.546283
	2.469168	2.545323
	2.473328	2.544683
	2.478128	2.552042
	2.481647	2.543723
	2.486767	2.543403
	2.491247	2.544683
	2.497326	2.544363
	2.501166	2.543723
	2.507246	2.542123
	2.512685	2.542123
	2.518125	2.541803
	2.524204	2.539883
	2.527404	2.538923
	2.532204	2.696992
	2.538923	2.541483
	2.542763	2.542443
	2.546923	2.545323
	2.549162	2.555242
	2.551402	2.553322
	2.553962	2.557482
	2.555242	2.560682
	2.555242	2.562921
	2.555882	2.559722
	2.555562	2.558122
	2.553962	2.549482
	2.553002	2.546283
	2.550122	2.538603
	2.547883	2.529644
	2.545003	2.528044
	2.543723	2.514285
	2.537323	2.511405
	2.533164	2.509485
	2.529964	2.512045
	2.526124	2.540203
	2.523564	2.580520
	2.519405	2.628517
	2.515885	2.636516
	2.513325	2.644516
	2.510445	2.679713
	2.506286	2.698592
	2.502126	2.711711
	2.498606	2.598119
	2.496046	2.877139
	2.492207	2.629157
	2.490287	2.568681
	2.490287	2.645156
	2.489327	2.593319
	2.496686	2.532524
	2.491887	2.530604
	2.493487	2.556842
	2.497006	2.549802
	2.500846	2.551402
	2.503406	2.544683
	2.507885	2.600039
	2.524204	2.548842
	2.511725	2.553002
	2.513325	2.582440
	2.513645	2.543723
	2.513965	2.534444
	2.513325	2.546923
	2.510765	2.556522
	2.527404	2.539563
	2.505326	2.537323
	2.502126	2.550122
	2.500206	2.548523
	2.497326	2.553322
	2.495726	2.552362
	2.491887	2.580520
	2.497006	2.556202
	2.488367	2.551402
	2.485807	2.561642
	2.485167	2.542123
	2.482607	2.536363
	2.481647	2.534444
	2.479408	2.528364
	2.480687	2.519405
	2.479408	2.516525
	2.480687	2.515245
	2.482607	2.514605
	2.486447	2.513645
	2.491887	2.511405
	2.496366	2.512045
	2.503406	2.510125
	2.510125	2.509805
	2.516525	2.515245
	2.576041	2.509485
	2.524844	2.509805
	2.528684	2.515245
	2.530604	2.514285
	2.531884	2.515885
	2.530604	2.545003
	2.529004	2.533484
	2.528044	2.536683
	2.520685	2.549162
	2.516205	2.593639
	2.510765	2.559402
	2.507565	2.545643
	2.504046	2.635236
	2.498926	2.557802
	2.499246	2.571881
	2.498286	2.563561
	2.496366	2.555562
	2.502766	2.529964
	2.499246	2.521964
	2.502766	2.533164
	2.617638	2.511405
	2.506286	2.509805
	2.511085	2.531884
	2.515885	2.512365
	2.520365	2.496686
	2.525164	2.503086
	2.529004	2.496686
	2.540203	2.485487
	2.541163	2.484847
	2.546603	2.487727
	2.552042	2.484527
	2.553962	2.487087
	2.558122	2.490607
	2.560042	2.498926
	2.562282	2.495086
	2.560682	2.501166
	2.560042	2.503726
	2.560042	2.506286
	2.554922	2.509805
	2.552682	2.521005
	2.553962	2.517485
	2.549482	2.520045
	2.548523	2.525484
	2.548203	2.533804
	2.548523	2.529324
	2.548842	2.535723
	2.548842	2.534124
	2.550122	2.535083
	2.549802	2.583720
	2.548523	2.534444
	2.550122	2.531884
	2.547243	2.531244
	2.544683	2.529644
	2.553002	2.526444
	2.538923	2.524204
	2.536043	2.521324
	2.532204	2.523884
	2.528044	2.519085
	2.525164	2.520365
	2.523564	2.518765
	2.522924	2.519725
	2.521324	2.520365
	2.522284	2.520045
	2.522604	2.519405
	2.523884	2.517485
	2.525164	2.516525
	2.526444	2.514285
	2.527724	2.510765
	2.527084	2.507885
	2.532844	2.503406
	2.529324	2.499886
	2.530284	2.496366
	2.638116	2.494766
	2.531564	2.490607
	2.532844	2.489967
	2.534444	2.488047
	2.536043	2.487407
	2.537003	2.489007
	2.537643	2.489967
	2.538923	2.491887
	2.536363	2.492847
	2.535403	2.496046
	2.531244	2.498926
	2.528044	2.501806
	2.521644	2.506286
	2.521964	2.515565
	2.514285	2.513965
	2.507885	2.517805
	2.507885	2.520045
	2.500526	2.523244
	2.498606	2.526764
	2.571561	2.529004
	2.492527	2.532844
	2.490607	2.534124
	2.486767	2.538283
	2.484207	2.540523
	2.479408	2.543723
	2.475568	2.545323
	2.472368	2.547563
	2.469808	2.553322
	2.469168	2.549162
	2.468528	2.548523
	2.468528	2.547563
	2.469488	2.545643
	2.470768	2.543723
	2.470768	2.541483
	2.473328	2.538283
	2.475568	2.535083
	2.476208	2.533804
	2.477488	2.532524
	2.480047	2.534764
	2.481647	2.530604
	2.483887	2.532204
	2.486127	2.533484
	2.487407	2.532844
	2.492207	2.532844
	2.495726	2.532844
	2.499886	2.531244
	2.505646	2.530284
	2.509805	2.529004
	2.510765	2.527084
	2.513005	2.525484
	2.514925	2.522924
	2.522604	2.523244
	2.522284	2.522284
	2.528044	2.521324
	2.576041	2.520365
	2.555562	2.519725
	2.577960	2.519725
	2.574761	2.520365
	2.603239	2.520365
	2.585640	2.520685
	2.585000	2.520685
	2.567081	2.521005
	2.606758	2.520365
	2.548203	2.520365
	2.560362	2.521644
	2.549482	2.523884
	2.555882	2.525164
	2.552362	2.530284
	2.562282	2.531884
	2.552362	2.534764
	2.559082	2.537323
	2.555562	2.537963
	2.555242	2.537963
	2.554602	2.536043
	2.559722	2.534444
	2.555882	2.529004
	2.561322	2.525164
	2.558122	2.521324
	2.561002	2.517805
	2.561002	2.516205
	2.562921	2.513325
	2.558442	2.512365
	2.562282	2.513325
	2.556522	2.516525
	2.553322	2.514925
	2.553322	2.517165
	2.547563	2.517485
	2.542763	2.517165
	2.539243	2.518445
	2.529644	2.529324
	2.522284	2.519085
	2.519725	2.520045
	2.512365	2.520045
	2.507246	2.523564
	2.503086	2.525804
	2.498926	2.528364
	2.497326	2.532524
	2.495406	2.535083
	2.495086	2.537643
	2.492847	2.539243
	2.493487	2.538603
	2.494446	2.537643
	2.494126	2.534764
	2.496686	2.531564
	2.500846	2.527724
	2.501166	2.523564
	2.505646	2.519405
	2.507885	2.515565
	2.507246	2.513005
	2.521644	2.511725
	2.519085	2.507885
	2.551402	2.505326
	2.539883	2.505326
	2.553642	2.506926
	2.604518	2.502766
	2.543723	2.499566
	2.626917	2.497966
	2.565161	2.497646
	2.541483	2.495086
	2.573481	2.493487
	2.549482	2.493167
	2.539243	2.493487
	2.565161	2.494126
	2.537003	2.496046
	2.529964	2.499566
	2.541163	2.501486
	2.532204	2.505326
	2.522284	2.509165
	2.525804	2.511405
	2.513645	2.515245
	2.508205	2.520045
	2.510765	2.519405
	2.508205	2.520685
	2.508845	2.522284
	2.506926	2.521964
	2.505646	2.523244
	2.512365	2.525164
	2.508845	2.526444
	2.510125	2.527724
	2.509805	2.528044
	2.509485	2.529004
	2.509165	2.528364
	2.515885	2.528044
	2.511085	2.527404
	2.511405	2.526444
	2.516525	2.525804
	2.509485	2.525164
	2.513325	2.524844
	2.507885	2.525804
	2.504686	2.527084
	2.511405	2.526764
	2.509485	2.529964
	2.508845	2.531244
	2.511085	2.533484
	2.510765	2.536683
	2.511405	2.548842
	2.514285	2.540523
	2.513645	2.541803
	2.519085	2.542123
	2.514605	2.543403
	2.513645	2.543403
	2.516205	2.544363
	2.513965	2.545643
	2.515565	2.546603
	2.516525	2.549802
	2.516845	2.550762
	2.520045	2.552682
	2.522284	2.552682
	2.525164	2.551082
	2.530604	2.550442
	2.531884	2.546923
	2.535723	2.543403
	2.538283	2.538923
	2.541483	2.534444
	2.544043	2.531564
	2.543403	2.526124
	2.543723	2.524524
	2.548203	2.521005
	2.545323	2.520685
	2.539243	2.520365
	2.537643	2.520045
	2.533484	2.521644
	2.529324	2.523564
	2.524204	2.524844
	2.521964	2.523884
	2.533164	2.525484
	2.516525	2.525804
	2.510765	2.526444
	2.508525	2.528364
	2.503726	2.527724
	2.500846	2.529004
	2.497966	2.529964
	2.493487	2.532524
	2.490927	2.537643
	2.488367	2.540523
	2.486447	2.545323
	2.484207	2.547243
	2.483887	2.549162
	2.484527	2.551722
	2.487407	2.552682
	2.488367	2.550762
	2.497966	2.553002
	2.492527	2.551402
	2.492207	2.548842
	2.494126	2.550122
	2.496046	2.548523
	2.498606	2.549162
	2.499566	2.549482
	2.499886	2.550442
	2.503086	2.551402
	2.509165	2.550762
	2.507885	2.551402
	2.509165	2.550762
	2.511725	2.548842
	2.514925	2.546603
	2.518445	2.542443
	2.520685	2.537963
	2.522924	2.534444
	2.526124	2.530284
	2.527404	2.526124
	2.530924	2.524844
	2.534124	2.521644
	2.537003	2.520685
	2.547243	2.519725
	2.543403	2.519405
	2.546283	2.517165
	2.549162	2.514925
	2.549162	2.513325
	2.550762	2.510125
	2.550442	2.506926
	2.549482	2.503726
	2.548523	2.499246
	2.546603	2.502766
	2.545323	2.493167
	2.544683	2.490607
	2.544043	2.488687
	2.557162	2.489327
	2.545643	2.623077
	2.548523	2.491247
	2.552042	2.491887
	2.555882	2.492207
	2.558762	2.492207
	2.561322	2.492207
	2.562601	2.490607
	2.562921	2.489007
	2.564201	2.486127
	2.559402	2.484527
	2.552362	2.482287
	2.545963	2.483567
	2.541483	2.483567
	2.630757	2.485487
	2.528044	2.488367
	2.522924	2.493806
	2.520045	2.497966
	2.518445	2.502766
	2.517805	2.508525
	2.517485	2.513965
	2.518765	2.515565
	2.519725	2.517805
	2.521005	2.521005
	2.521324	2.521324
	2.522284	2.521964
	2.522284	2.521324
	2.521005	2.521964
	2.521644	2.521005
	2.522604	2.520045
	2.523244	2.519725
	2.526124	2.521324
	2.526764	2.522604
	2.529644	2.523244
	2.532524	2.524204
	2.534124	2.526444
	2.536683	2.525484
	2.537003	2.526764
	2.536683	2.527084
	2.542123	2.525164
	2.530604	2.523564
	2.527084	2.521644
	2.523244	2.521005
	2.519405	2.520685
	2.518445	2.519085
	2.512685	2.517485
	2.510125	2.644516
	2.510125	2.518125
	2.509165	2.517805
	2.511085	2.518445
	2.511405	2.517805
	2.513645	2.521644
	2.514605	2.514285
	2.517165	2.511085
	2.517805	2.505326
	2.520045	2.500526
	2.521964	2.499566
	2.522284	2.489967
	2.523244	2.486127
	2.524844	2.482287
	2.527724	2.479088
	2.528364	2.477168
	2.529324	2.475888
	2.531564	2.477168
	2.533164	2.478768
	2.533804	2.481327
	2.532844	2.482927
	2.532524	2.485487
	2.530284	2.525484
	2.528364	2.488367
	2.527084	2.489647
	2.521324	2.489007
	2.515245	2.491247
	2.509485	2.498286
	2.503406	2.496686
	2.497646	2.500206
	2.493806	2.504686
	2.490927	2.512045
	2.487407	2.519405
	2.483247	2.528684
	2.480687	2.537003
	2.477488	2.545643
	2.473008	2.553642
	2.471408	2.561002
	2.466288	2.567081
	2.462129	2.574761
	2.456049	2.575401
	2.451890	2.577960
	2.448370	2.580840
	2.443890	2.582760
	2.440690	2.586280
	2.439410	2.587560
	2.438770	2.589160
	2.440050	2.590759
	2.443570	2.592359
	2.595559	2.592359
	2.449010	2.591399
	2.454129	2.590439
	2.460529	2.584040
	2.468208	2.578600
	2.473968	2.571241
	2.480687	2.561962
	2.489647	2.554282
	2.496686	2.545323
	2.505006	2.543723
	2.513325	2.532524
	2.516525	2.526764
	2.524524	2.521644
	2.530284	2.518765
	2.534764	2.516205
	2.538923	2.512045
	2.541483	2.518765
	2.545323	2.504366
	2.548203	2.500206
	2.550762	2.497966
	2.553002	2.494126
	2.555562	2.490927
	2.558122	2.488687
	2.560042	2.501486
	2.562601	2.491887
	2.564521	2.494766
	2.565481	2.498926
	2.565801	2.502126
	2.566121	2.505006
	2.566121	2.506926
	2.563561	2.530924
	2.562601	2.509165
	2.558762	2.510445
	2.553642	2.511405
	2.547883	2.515885
	2.542443	2.521005
	2.539563	2.529324
	2.533804	2.539883
	2.528684	2.550122
	2.523564	2.561322
	2.518125	2.570921
	2.514605	2.578280
	2.529964	2.582440
	2.509485	2.581800
	2.507246	2.579880
	2.505006	2.571881
	2.505006	2.568041
	2.504046	2.551402
	2.503726	2.540843
	2.506286	2.530924
	2.505326	2.523244
	2.506926	2.517165
	2.510125	2.512685
	2.514285	2.512045
	2.518125	2.510765
	2.523244	2.545323
	2.526764	2.508205
	2.530604	2.504686
	2.537323	2.503726
	2.534764	2.494126
	2.537003	2.487727
	2.536363	2.478448
	2.536683	2.473648
	2.532204	2.465649
	2.530604	2.485807
	2.527724	2.458609
	2.527084	2.457969
	2.528364	2.461169
	2.526764	2.464049
	2.528364	2.465968
	2.529964	2.469808
	2.532524	2.473328
	2.534444	2.475248
	2.534764	2.522284
	2.535083	2.475248
	2.533484	2.474928
	2.533484	2.474288
	2.529964	2.472688
	2.566121	2.474608
	2.523244	2.474928
	2.521644	2.479088
	2.517805	2.484207
	2.513965	2.492847
	2.513325	2.498286
	2.512045	2.506926
	2.512685	2.514605
	2.512045	2.522284
	2.592359	2.529324
	2.513645	2.534444
	2.513325	2.537643
	2.515565	2.540203
	2.514605	2.542443
	2.513965	2.540843
	2.513645	2.546923
	2.515885	2.537963
	2.516525	2.536043
	2.520045	2.532844
	2.524204	2.529644
	2.554922	2.527084
	2.533484	2.525164
	2.536363	2.521644
	2.540203	2.518445
	2.545963	2.515565
	2.549482	2.509165
	2.551082	2.511405
	2.551722	2.501806
	2.551722	2.496366
	2.553002	2.495406
	2.549162	2.491887
	2.568361	2.489007
	2.546283	2.490287
	2.544683	2.489007
	2.542763	2.489327
	2.541803	2.490607
	2.539243	2.490287
	2.537323	2.497646
	2.536683	2.491887
	2.535083	2.494766
	2.535083	2.494126
	2.534444	2.497006
	2.536363	2.498926
	2.531564	2.501166
	2.530924	2.504686
	2.528684	2.509485
	2.527404	2.514285
	2.524204	2.518445
	2.523244	2.522604
	2.521005	2.525164
	2.518765	2.533804
	2.517165	2.530284
	2.514605	2.591719
	2.511085	2.541803
	2.508845	2.545643
	2.506286	2.552682
	2.501806	2.559722
	2.522604	2.567401
	2.492527	2.573801
	2.486447	2.581160
	2.481967	2.586600
	2.478128	2.590439
	2.474608	2.592679
	2.469808	2.594599
	2.466928	2.594599
	2.465009	2.601319
	2.463729	2.588840
	2.463409	2.633956
	2.466608	2.581160
	2.466288	2.577320
	2.472688	2.572841
	2.471728	2.569321
	2.583400	2.566121
	2.481647	2.562921
	2.487407	2.561002
	2.493167	2.557802
	2.497006	2.553642
	2.503726	2.548842
	2.507885	2.545643
	2.513645	2.539243
	2.518125	2.537003
	2.519725	2.530604
	2.521964	2.534764
	2.521644	2.522284
	2.521005	2.761947
	2.524524	2.521964
	2.519085	2.519725
	2.520045	2.521324
	2.517805	2.523884
	2.525164	2.524204
	2.518765	2.528364
	2.521324	2.528684
	2.518765	2.527724
	2.520365	2.529004
	2.522604	2.527724
	2.521005	2.527724
	2.521324	2.526124
	2.521005	2.524524
	2.519405	2.525164
	2.517165	2.525484
	2.515245	2.526764
	2.513005	2.528044
	2.510765	2.526764
	2.508845	2.532204
	2.508525	2.525804
	2.508525	2.531564
	2.510125	2.518445
	2.512685	2.646435
	2.515885	2.506286
	2.519405	2.502446
	2.523884	2.494766
	2.527084	2.489647
	2.531564	2.484207
	2.533164	2.479728
	2.541803	2.476208
	2.539563	2.478128
	2.581800	2.475248
	2.543083	2.473328
	2.660194	2.472048
	2.545643	2.468848
	2.594279	2.466288
	2.545643	2.463089
	2.548203	2.460849
	2.547883	2.456369
	2.546283	2.453809
	2.544683	2.452849
	2.542443	2.452209
	2.539883	2.454769
	2.538923	2.458609
	2.537003	2.462449
	2.534124	2.469168
	2.532524	2.473968
	2.530604	2.480687
	2.527724	2.484847
	2.526124	2.492527
	2.527084	2.498286
	2.521005	2.503726
	2.521005	2.507565
	2.516845	2.511725
	2.514925	2.513645
	2.511405	2.518765
	2.509805	2.522284
	2.508205	2.527404
	2.507246	2.533804
	2.506286	2.541163
	2.504046	2.548203
	2.504686	2.557162
	2.507565	2.561002
	2.507565	2.566441
	2.507885	2.568361
	2.508525	2.570921
	2.509165	2.568041
	2.509165	2.565481
	2.512365	2.559722
	2.514605	2.569641
	2.515565	2.546923
	2.516205	2.569321
	2.518125	2.533164
	2.520685	2.531884
	2.525484	2.523564
	2.528364	2.527404
	2.534764	2.517805
	2.541163	2.524204
	2.549162	2.513005
	2.557802	2.515565
	2.562601	2.511085
	2.569641	2.514605
	2.575401	2.508525
	2.580840	2.512685
	2.584040	2.507246
	2.587880	2.512685
	2.590119	2.509485
	2.592039	2.513005
	2.593319	2.510445
	2.591719	2.513325
	2.595879	2.513645
	2.597799	2.517485
	2.600679	2.515245
	2.602599	2.521005
	2.604198	2.516845
	2.605798	2.543723
	2.604518	2.518765
	2.604518	2.521964
	2.601639	2.521644
	2.599079	2.526764
	2.595879	2.575081
	2.589480	2.529004
	2.584040	2.632996
	2.577640	2.537643
	2.569961	2.552362
	2.564841	2.533804
	2.556842	2.553322
	2.548523	2.532524
	2.542443	2.546603
	2.533164	2.531244
	2.527404	2.541803
	2.518445	2.540843
	2.510125	2.530284
	2.504046	2.529644
	2.493487	2.542763
	2.502446	2.544043
	2.481007	2.541163
	2.496686	2.534764
	2.469168	2.543083
	2.468208	2.536363
	2.462129	2.532844
	2.466288	2.532204
	2.460209	2.532204
	2.457969	2.528044
	2.459889	2.527404
	2.461489	2.519725
	2.463409	2.516845
	2.468528	2.514925
	2.473648	2.509805
	2.478768	2.505646
	2.484847	2.502446
	2.492527	2.502766
	2.500846	2.497646
	2.508205	2.494126
	2.514285	2.492527
	2.521644	2.491887
	2.526764	2.490607
	2.531564	2.491567
	2.534124	2.493806
	2.533804	2.501486
	2.535083	2.502126
	2.534124	2.629157
	2.533164	2.514925
	2.532844	2.631397
	2.534444	2.528044
	2.530924	2.603559
	2.639396	2.539243
	2.528364	2.687392
	2.533164	2.542763
	2.529324	2.664674
	2.532204	2.540843
	2.529964	2.610598
	2.531244	2.548842
	2.532844	2.533804
	2.533804	2.522924
	2.534764	2.551722
	2.536363	2.514285
	2.540523	2.510445
	2.541163	2.618597
	2.541483	2.504366
	2.543723	2.525164
	2.545643	2.501486
	2.548203	2.508205
	2.548842	2.499886
	2.549802	2.517805
	2.574761	2.500846
	2.550122	2.513325
	2.562601	2.501166
	2.551402	2.509805
	2.551082	2.505326
	2.550122	2.515565
	2.549162	2.637476
	2.546923	2.521644
	2.544363	2.536363
	2.543083	2.543403
	2.539883	2.545963
	2.534764	2.560362
	2.531884	2.552042
	2.528684	2.548203
	2.522924	2.563241
	2.519725	2.562601
	2.514605	2.577320
	2.537643	2.573161
	2.508205	2.584680
	2.510445	2.761627
	2.500206	2.585000
	2.498926	2.616038
	2.497966	2.584680
	2.497966	2.589800
	2.498286	2.588200
	2.499566	2.584680
	2.501806	2.587560
	2.503086	2.580200
	2.503726	2.654435
	2.506606	2.573801
	2.520365	2.569321
	2.509805	2.568361
	2.513325	2.685473
	2.510125	2.560042
	2.512045	2.574441
	2.510445	2.552042
	2.509805	2.555882
	2.510765	2.540203
	2.509805	2.531884
	2.510445	2.534124
	2.512685	2.521005
	2.553002	2.529324
	2.514925	2.505966
	2.531884	2.580840
	2.518445	2.492847
	2.521964	2.509805
	2.520685	2.478128
	2.522284	2.473968
	2.522284	2.466928
	2.521964	2.462769
	2.521644	2.460529
	2.520045	2.456689
	2.553002	2.458609
	2.517805	2.451570
	2.526444	2.624677
	2.512365	2.452849
	2.513965	2.461489
	2.508525	2.455729
	2.505966	2.459889
	2.501486	2.460529
	2.499566	2.458609
	2.497646	2.467888
	2.494766	2.469168
	2.501166	2.483247
	2.492207	2.468848
	2.493806	2.484527
	2.491247	2.469808
	2.506286	2.475248
	2.492847	2.471728
	2.494766	2.471408
	2.498286	2.471408
	2.512685	2.472688
	2.519405	2.473328
	2.505006	2.472048
	2.512365	2.481967
	2.513645	2.470448
	2.518445	2.473328
	2.560362	2.469808
	2.554922	2.470128
	2.545003	2.470128
	2.557482	2.469488
	2.550122	2.471728
	2.550122	2.472688
	2.550122	2.557162
	2.560682	2.475888
	2.560362	2.494126
	2.576680	2.480687
	2.572841	2.483887
	2.575721	2.486767
	2.571241	2.489007
	2.574761	2.492847
	2.590439	2.494446
	2.570281	2.523244
	2.573481	2.502126
	2.567081	2.531564
	2.568681	2.507885
	2.570281	2.512365
	2.567721	2.515245
	2.564521	2.518125
	2.562282	2.532524
	2.562282	2.519725
	2.559402	2.531564
	2.560682	2.520685
	2.559722	2.582440
	2.562282	2.522284
	2.561962	2.522604
	2.559082	2.522924
	2.559402	2.524844
	2.558762	2.560362
	2.557482	2.527084
	2.555242	2.533164
	2.553962	2.530924
	2.554282	2.565481
	2.551722	2.532844
	2.552682	2.534124
	2.547883	2.533804
	2.546283	2.532844
	2.543403	2.539243
	2.542763	2.535083
	2.537323	2.539883
	2.534124	2.540843
	2.530924	2.546283
	2.527084	2.553002
	2.525164	2.558762
	2.519405	2.575721
	2.513325	2.572521
	2.507885	2.578920
	2.504366	2.581160
	2.498286	2.590119
	2.493487	2.583720
	2.487407	2.585000
	2.481327	2.593959
	2.481327	2.582120
	2.475568	2.580840
	2.471408	2.578600
	2.467248	2.585960
	2.465649	2.578280
	2.465329	2.577000
	2.462449	2.592999
	2.463089	2.573161
	2.465649	2.569321
	2.468208	2.562601
	2.470448	2.568681
	2.475888	2.546283
	2.482287	2.536363
	2.490607	2.537963
	2.497646	2.515885
	2.502126	2.505006
	2.510765	2.495726
	2.517805	2.488687
	2.524524	2.481967
	2.529644	2.478128
	2.532844	2.479728
	2.535723	2.475568
	2.537323	2.476208
	2.538603	2.477488
	2.538283	2.481007
	2.537003	2.483247
	2.534124	2.486127
	2.529324	2.491567
	2.524844	2.494446
	2.519085	2.499246
	2.512365	2.504046
	2.505326	2.511085
	2.496686	2.530924
	2.489327	2.519085
	2.483247	2.522924
	2.476848	2.526764
	2.470768	2.532524
	2.465009	2.535083
	2.462129	2.538923
	2.461169	2.543083
	2.460209	2.539883
	2.461169	2.540843
	2.462449	2.539883
	2.467248	2.536683
	2.470448	2.546283
	2.474608	2.532524
	2.478448	2.529324
	2.486127	2.524844
	2.493167	2.521005
	2.498286	2.517165
	2.507246	2.514925
	2.517165	2.510445
	2.527084	2.506926
	2.537963	2.503726
	2.545643	2.498606
	2.558122	2.496366
	2.567081	2.495726
	2.578600	2.489647
	2.586600	2.487087
	2.608998	2.485167
	2.597799	2.484847
	2.603559	2.498286
	2.606758	2.482287
	2.608998	2.481967
	2.610918	2.481327
	2.610278	2.482927
	2.607078	2.586600
	2.701151	2.489967
	2.599719	2.492847
	2.691552	2.498926
	2.588200	2.504366
	2.590119	2.512045
	2.637156	2.519085
	2.565481	2.527724
	2.575401	2.536043
	2.551722	2.543723
	2.544683	2.550762
	2.539243	2.557802
	2.533164	2.561322
	2.600039	2.562601
	2.525804	2.563881
	2.585960	2.562282
	2.608678	2.561002
	2.517485	2.560042
	2.573481	2.555242
	2.515565	2.551402
	2.592999	2.545323
	2.574761	2.540523
	2.518765	2.536043
	2.535083	2.529644
	2.529004	2.524844
	2.539883	2.520365
	2.554282	2.516525
	2.581480	2.515245
	2.559722	2.513005
	2.560362	2.508205
	2.598119	2.505966
	2.581800	2.502766
	2.591719	2.500206
	2.582760	2.497006
	2.575721	2.493806
	2.584680	2.669154
	2.582120	2.491247
	2.577960	2.491887
	2.575401	2.492207
	2.568041	2.489007
	2.573801	2.490607
	2.565161	2.491567
	2.568361	2.494766
	2.562282	2.497966
	2.590759	2.501166
	2.556842	2.536683
	2.554922	2.504366
	2.556522	2.506926
	2.555882	2.507246
	2.559722	2.506286
	2.551082	2.513645
	2.550122	2.504366
	2.554602	2.502126
	2.550122	2.498926
	2.563881	2.498286
	2.554922	2.499566
	2.545963	2.497006
	2.553642	2.495726
	2.549162	2.494446
	2.546283	2.494446
	2.545323	2.494446
	2.543403	2.492527
	2.648675	2.491567
	2.544043	2.617957
	2.540203	2.489007
	2.540523	2.486767
	2.537643	2.487087
	2.548523	2.486127
	2.534444	2.516205
	2.532204	2.489327
	2.532844	2.490927
	2.526764	2.493487
	2.528044	2.494766
	2.521005	2.499886
	2.517805	2.501486
	2.580840	2.502766
	2.507565	2.506286
	2.505966	2.507885
	2.501486	2.511725
	2.496686	2.515885
	2.515885	2.517805
	2.490287	2.532524
	2.487407	2.527084
	2.485167	2.531884
	2.482607	2.537003
	2.484207	2.535083
	2.481327	2.545003
	2.481647	2.547243
	2.552362	2.548842
	2.482287	2.580200
	2.483567	2.549162
	2.484207	2.546603
	2.486767	2.543403
	2.502446	2.541803
	2.494446	2.538603
	2.498606	2.535403
	2.575081	2.533164
	2.509165	2.709151
	2.524524	2.530284
	2.517485	2.529964
	2.520045	2.528044
	2.522604	2.526124
	2.522924	2.526444
	2.523564	2.521005
	2.524844	2.516205
	2.523244	2.571241
	2.522284	2.510765
	2.520685	2.508845
	2.520365	2.506286
	2.522604	2.505966
	2.520365	2.507565
	2.521644	2.506926
	2.523244	2.507565
	2.523244	2.577960
	2.558442	2.508205
	2.523884	2.508205
	2.523244	2.508205
	2.526444	2.508525
	2.518765	2.509805
	2.517485	2.510765
	2.566121	2.510765
	2.514605	2.520365
	2.513645	2.517485
	2.513005	2.521324
	2.511085	2.523884
	2.514605	2.529964
	2.512685	2.532524
	2.511405	2.536683
	2.515885	2.538603
	2.510765	2.542123
	2.511085	2.542443
	2.509485	2.543403
	2.507885	2.564201
	2.507246	2.546283
	2.505646	2.545643
	2.506286	2.545963
	2.506286	2.545643
	2.504686	2.549162
	2.506286	2.544043
	2.520685	2.542123
	2.510125	2.542443
	2.517165	2.539243
	2.517485	2.537643
	2.520045	2.550762
	2.522604	2.531884
	2.523884	2.529004
	2.525164	2.662754
	2.526764	2.523564
	2.525804	2.522924
	2.523884	2.520045
	2.523564	2.519405
	2.521324	2.519725
	2.519725	2.516845
	2.530924	2.516525
	2.516205	2.517485
	2.516205	2.513325
	2.515245	2.512045
	2.515885	2.524524
	2.518765	2.509805
	2.520045	2.510445
	2.520685	2.510445
	2.524844	2.510445
	2.525804	2.510445
	2.527404	2.684513
	2.530284	2.509805
	2.530604	2.510125
	2.532524	2.509805
	2.537323	2.508525
	2.534444	2.508205
	2.535403	2.506286
	2.594279	2.505006
	2.534764	2.511725
	2.535403	2.505326
	2.535083	2.506606
	2.537003	2.543403
	2.537963	2.507246
	2.538283	2.508525
	2.539563	2.531884
	2.538923	2.507885
	2.539563	2.506926
	2.547563	2.540843
	2.541483	2.505966
	2.540203	2.505006
	2.540203	2.505966
	2.540523	2.505646
	2.539563	2.505646
	2.538603	2.504046
	2.539243	2.504046
	2.536043	2.505326
	2.537003	2.502126
	2.548523	2.500526
	2.538283	2.498606
	2.539563	2.497646
	2.603239	2.497326
	2.543083	2.500206
	2.544363	2.499886
	2.659234	2.499886
	2.547883	2.505006
	2.548842	2.506606
	2.548523	2.509485
	2.545963	2.517805
	2.546923	2.515565
	2.542763	2.517805
	2.541483	2.534444
	2.536363	2.523884
	2.533164	2.526764
	2.530284	2.581160
	2.527724	2.530924
	2.524204	2.531884
	2.521964	2.569001
	2.522604	2.531884
	2.520045	2.532204
	2.520045	2.678113
	2.519725	2.529324
	2.521644	2.526764
	2.522924	2.526124
	2.524524	2.529324
	2.526444	2.525484
	2.527724	2.533484
	2.531244	2.525804
	2.531244	2.524204
	2.533804	2.594919
	2.536683	2.521324
	2.537643	2.517485
	2.539563	2.511405
	2.540843	2.506286
	2.541483	2.501166
	2.542123	2.596519
	2.541483	2.495406
	2.539563	2.497006
	2.538603	2.498286
	2.538923	2.499246
	2.535723	2.503086
	2.533804	2.506606
	2.534124	2.504686
	2.531244	2.504046
	2.529324	2.505326
	2.526444	2.505326
	2.521324	2.506606
	2.520685	2.596839
	2.516845	2.509485
	2.510765	2.512365
	2.505966	2.657955
	2.503406	2.519085
	2.499246	2.522284
	2.496366	2.559082
	2.495726	2.525164
	2.494766	2.523564
	2.495726	2.632356
	2.497966	2.521964
	2.499566	2.520365
	2.502446	2.525164
	2.505326	2.521005
	2.505646	2.520685
	2.507885	2.527724
	2.509485	2.521005
	2.510765	2.520365
	2.511405	2.521644
	2.512365	2.517805
	2.511405	2.514925
	2.511405	2.512365
	2.510445	2.509485
	2.542763	2.507565
	2.507246	2.507885
	2.506286	2.506286
	2.551082	2.506286
	2.506286	2.508525
	2.506926	2.509165
	2.512685	2.508525
	2.509485	2.508845
	2.512365	2.550762
	2.513645	2.504046
	2.514605	2.502126
	2.514925	2.522924
	2.515245	2.494446
	2.515885	2.490607
	2.515565	2.500206
	2.515565	2.487727
	2.516525	2.486127
	2.516205	2.495726
	2.517165	2.486767
	2.525164	2.487727
	2.518765	2.513645
	2.520045	2.637156
	2.623077	2.490607
	2.521324	2.548842
	2.521964	2.515245
	2.523564	2.577000
	2.523884	2.503406
	2.524844	2.518445
	2.527724	2.508525
	2.527404	2.511085
	2.528684	2.519725
	2.530604	2.579240
	2.529004	2.514925
	2.528044	2.520685
	2.525804	2.539563
	2.523564	2.619877
	2.522924	2.523244
	2.520045	2.536043
	2.532524	2.557162
	2.517485	2.547243
	2.514925	2.548842
	2.518445	2.541803
	2.513005	2.552682
	2.511725	2.543723
	2.511725	2.550762
	2.511085	2.545323
	2.510765	2.528684
	2.510125	2.524524
	2.511085	2.528684
	2.511405	2.518445
	2.511085	2.521324
	2.521324	2.532524
	2.514285	2.524204
	2.515245	2.526764
	2.518765	2.531564
	2.519405	2.529324
	2.519405	2.527404
	2.520685	2.523884
	2.521324	2.529324
	2.522284	2.516525
	2.520685	2.516525
	2.562921	2.510765
	2.523244	2.508845
	2.524844	2.520685
	2.530284	2.518765
	2.526124	2.523564
	2.527404	2.524844
	2.528364	2.529324
	2.527724	2.535403
	2.528364	2.532844
	2.526764	2.533484
	2.547883	2.530604
	2.521964	2.524844
	2.519405	2.522284
	2.519085	2.518445
	2.513965	2.518765
	2.511405	2.519405
	2.508845	2.521964
	2.506926	2.527724
	2.504366	2.528364
	2.506286	2.530604
	2.509805	2.530924
	2.505966	2.529644
	2.506606	2.528044
	2.511405	2.524524
	2.509165	2.522284
	2.510125	2.518765
	2.510765	2.518125
	2.578600	2.518445
	2.513645	2.519405
	2.517165	2.521005
	2.521005	2.526444
	2.521324	2.528044
	2.525164	2.528684
	2.528684	2.529004
	2.528044	2.528044
	2.533164	2.525484
	2.532844	2.524204
	2.537643	2.523244
	2.533804	2.523244
	2.533484	2.524204
	2.533804	2.525804
	2.532524	2.530284
	2.530604	2.533804
	2.529004	2.537643
	2.529644	2.539563
	2.527084	2.540203
	2.527404	2.539563
	2.528044	2.537643
	2.527404	2.534444
	2.527404	2.532204
	2.528044	2.530604
	2.537003	2.528684
	2.531564	2.528684
	2.532204	2.529964
	2.534444	2.532204
	2.534764	2.534444
	2.532524	2.535403
	2.536363	2.536043
	2.540203	2.536683
	2.535403	2.535083
	2.536363	2.531244
	2.535723	2.525804
	2.537003	2.520045
	2.537323	2.516205
	2.540203	2.509485
	2.543083	2.507246
	2.542443	2.505966
	2.543723	2.504686
	2.539883	2.508205
	2.640996	2.510125
	2.544363	2.514925
	2.542123	2.517485
	2.539243	2.519085
	2.535083	2.520045
	2.535083	2.519405
	2.530604	2.516845
	2.535403	2.513005
	2.525164	2.510765
	2.524524	2.507565
	2.523244	2.505646
	2.528044	2.506286
	2.521644	2.508205
	2.521005	2.512685
	2.522604	2.517485
	2.522604	2.521005
	2.520685	2.524844
	2.520365	2.527084
	2.524524	2.525804
	2.516205	2.523884
	2.515245	2.520045
	2.513965	2.515245
	2.591399	2.510125
	2.512685	2.506606
	2.515245	2.503726
	2.518445	2.504046
	2.520045	2.506286
	2.524524	2.510445
	2.528684	2.513965
	2.533804	2.516205
	2.534124	2.519085
	2.534444	2.518125
	2.534444	2.515885
	2.537963	2.510765
	2.534124	2.505966
	2.533804	2.500846
	2.535723	2.496686
	2.616358	2.494446
	2.537323	2.496366
	2.537963	2.500206
	2.545323	2.505006
	2.552042	2.511085
	2.540203	2.516525
	2.540203	2.519725
	2.545643	2.520045
	2.543083	2.519725
	2.529644	2.518125
	2.525804	2.513645
	2.524204	2.509805
	2.514285	2.508205
	2.562282	2.509165
	2.511725	2.510765
	2.524844	2.512365
	2.523884	2.518445
	2.561962	2.524204
	2.526764	2.528364
	2.511725	2.531244
	2.517485	2.532524
	2.519725	2.529964
	2.513965	2.525484
	2.513965	2.517485
	2.523884	2.509165
	2.541483	2.501486
	2.513645	2.494766
	2.529324	2.490927
	2.520045	2.488687
	2.527724	2.489647
	2.532844	2.492207
	2.543723	2.498286
	2.550442	2.505006
	2.546603	2.509805
	2.546283	2.512045
	2.551402	2.513325
	2.545003	2.510765
	2.540203	2.508205
	2.535083	2.502766
	2.532844	2.496686
	2.535083	2.491567
	2.525164	2.488687
	2.523244	2.488367
	2.529324	2.490287
	2.526124	2.497326
	2.527724	2.503086
	2.530284	2.512045
	2.533484	2.520685
	2.534444	2.528364
	2.534124	2.531564
	2.535083	2.533804
	2.536683	2.532524
	2.536043	2.529644
	2.534444	2.522924
	2.535403	2.516845
	2.537003	2.511085
	2.539563	2.506926
	2.537643	2.504686
	2.539563	2.505646
	2.542123	2.507565
	2.542443	2.511405
	2.542763	2.518125
	2.543723	2.523564
	2.544363	2.529004
	2.544363	2.531244
	2.542123	2.532844
	2.540523	2.532844
	2.540523	2.529644
	2.539883	2.525804
	2.537963	2.522604
	2.537323	2.518445
	2.537323	2.514925
	2.537323	2.514605
	2.534444	2.513325
	2.534124	2.516525
	2.534444	2.520685
	2.531884	2.525484
	2.529324	2.532204
	2.526444	2.536683
	2.524524	2.539883
	2.520685	2.542123
	2.518765	2.543083
	2.514605	2.542443
	2.515885	2.538283
	2.517165	2.533484
	2.520365	2.527084
	2.523244	2.520685
	2.527724	2.514285
	2.532524	2.512685
	2.537003	2.508205
	2.541803	2.507885
	2.542123	2.508525
	2.544043	2.513325
	2.542443	2.518765
	2.540523	2.525484
	2.539243	2.531564
	2.536683	2.536043
	2.532524	2.537963
	2.529644	2.536043
	2.528684	2.530924
	2.525484	2.523884
	2.525804	2.513645
	2.524204	2.504366
	2.524844	2.495086
	2.524524	2.489967
	2.526444	2.486127
	2.525804	2.486767
	2.525164	2.490927
	2.523564	2.498606
	2.522924	2.506606
	2.521324	2.513005
	2.519725	2.516845
	2.519725	2.516205
	2.520045	2.513005
	2.519085	2.505326
	2.521964	2.492847
	2.523244	2.480047
	2.524844	2.468528
	2.527084	2.459569
	2.529964	2.453489
	2.529644	2.452849
	2.530284	2.457009
	2.529644	2.466608
	2.527724	2.478448
	2.526444	2.491567
	2.524204	2.503086
	2.523564	2.513325
	2.521644	2.517805
	2.518765	2.520365
	2.518765	2.516845
	2.515565	2.511085
	2.514925	2.504366
	2.515565	2.499246
	2.516845	2.493806
	2.518125	2.493167
	2.518765	2.497006
	2.519405	2.503086
	2.520685	2.512365
	2.521964	2.522924
	2.522924	2.533164
	2.525804	2.542763
	2.526444	2.550122
	2.527724	2.552682
	2.528684	2.553322
	2.529644	2.550442
	2.529644	2.545323
	2.529964	2.539563
	2.529964	2.532524
	2.530604	2.526444
	2.530604	2.521964
	2.530284	2.518125
	2.531564	2.515565
	2.534124	2.514285
	2.534124	2.515885
	2.536683	2.518125
	2.536683	2.520685
	2.539883	2.524844
	2.543083	2.529644
	2.545643	2.532524
	2.547243	2.537963
	2.547883	2.539563
	2.549802	2.540203
	2.550122	2.538923
	2.547563	2.536043
	2.546603	2.529324
	2.544043	2.522604
	2.542763	2.513645
	2.540843	2.505966
	2.537963	2.499246
	2.536683	2.495726
	2.534764	2.496686
	2.532204	2.498286
	2.531884	2.505326
	2.532524	2.513645
	2.534444	2.522924
	2.535723	2.532524
	2.537963	2.539243
	2.540523	2.541483
	2.541803	2.541803
	2.541163	2.537643
	2.539883	2.530284
	2.539563	2.521644
	2.537643	2.511085
	2.535403	2.502766
	2.530924	2.495726
	2.529964	2.491567
	2.526764	2.491887
	2.527084	2.495406
	2.526444	2.502126
	2.528044	2.509485
	2.529004	2.517485
	2.530924	2.524844
	2.534444	2.529644
	2.534444	2.530604
	2.537003	2.530604
	2.535723	2.526444
	2.534444	2.521964
	2.531244	2.513325
	2.527084	2.507246
	2.523564	2.500846
	2.519725	2.496686
	2.514925	2.493167
	2.512365	2.493167
	2.510125	2.496366
	2.510125	2.502126
	2.510445	2.509165
	2.510445	2.518125
	2.515565	2.524204
	2.517485	2.533164
	2.522924	2.537643
	2.525164	2.542443
	2.528364	2.543403
	2.532524	2.542123
	2.534124	2.536683
	2.534124	2.529964
	2.533484	2.522604
	2.532524	2.514285
	2.529004	2.507246
	2.526444	2.503086
	2.522924	2.500846
	2.519405	2.502126
	2.517165	2.504046
	2.515245	2.510125
	2.514925	2.515565
	2.515245	2.522284
	2.515565	2.530604
	2.518125	2.535723
	2.519725	2.537323
	2.520045	2.537643
	2.521324	2.534444
	2.519725	2.530604
	2.518445	2.522604
	2.515885	2.512045
	2.512045	2.506926
	2.508845	2.501806
	2.504366	2.497646
	2.501806	2.496686
	2.498286	2.497326
	2.497326	2.499886
	2.497646	2.503086
	2.499566	2.506606
	2.503726	2.508845
	2.508525	2.511725
	2.513325	2.512685
	2.517805	2.511725
	2.521964	2.513325
	2.524844	2.512045
	2.528364	2.511085
	2.526764	2.512045
	2.526444	2.509805
	2.522604	2.511405
	2.520045	2.676193
	2.514925	2.513965
	2.508845	2.515565
	2.505646	2.516205
	2.503086	2.514925
	2.499886	2.515565
	2.498606	2.513325
	2.498606	2.512045
	2.498286	2.510765
	2.500846	2.513005
	2.503406	2.579240
	2.506926	2.535403
	2.510765	2.520685
	2.513005	2.525804
	2.514925	2.531244
	2.517485	2.533484
	2.517805	2.550762
	2.518445	2.537323
	2.517485	2.535403
	2.517485	2.531884
	2.517805	2.656995
	2.517485	2.555242
	2.516845	2.554922
	2.517165	2.507885
	2.515565	2.502766
	2.514925	2.498606
	2.518445	2.529004
	2.517485	2.603239
	2.517485	2.528364
	2.519725	2.508845
	2.520045	2.514925
	2.522284	2.522604
	2.524844	2.532524
	2.525484	2.587560
	2.526764	2.543403
	2.527404	2.537003
	2.526764	2.536683
	2.526764	2.554922
	2.525164	2.539563
	2.524524	2.537323
	2.519725	2.608358
	2.517805	2.513965
	2.515885	2.503726
	2.514285	2.527724
	2.512365	2.509485
	2.513645	2.528044
	2.516205	2.745948
	2.517805	2.521644
	2.518445	2.525164
	2.521964	2.523244
	2.524524	2.525804
	2.526124	2.546603
	2.527084	2.566761
	2.527724	2.520365
	2.527724	2.521964
	2.523884	2.520045
	2.521005	2.518445
	2.520685	2.517165
	2.519405	2.526444
	2.516845	2.531884
	2.513965	2.524524
	2.513965	2.529324
	2.513645	2.524204
	2.514925	2.557162
	2.515565	2.530284
	2.518125	2.527404
	2.520365	2.566121
	2.521005	2.531244
	2.523564	2.535403
	2.526124	2.558762
	2.527724	2.523884
	2.528684	2.521644
	2.529324	2.521324
	2.529644	2.519085
	2.529324	2.517165
	2.527404	2.529004
	2.527084	2.637156
	2.525164	2.517485
	2.523564	2.519085
	2.522604	2.520045
	2.520685	2.523244
	2.520045	2.523884
	2.519725	2.583400
	2.519405	2.516845
	2.519085	2.515565
	2.521324	2.514605
	2.523244	2.511725
	2.524524	2.516205
	2.525804	2.520685
	2.528364	2.657955
	2.529964	2.507246
	2.532524	2.509485
	2.532844	2.505966
	2.532844	2.549802
	2.531564	2.516525
	2.529644	2.505326
	2.526764	2.499246
	2.524524	2.504686
	2.520365	2.504366
	2.517165	2.510445
	2.514605	2.516525
	2.513325	2.526764
	2.512365	2.571241
	2.513325	2.525484
	2.513645	2.527084
	2.515565	2.535723
	2.516205	2.532204
	2.516845	2.530284
	2.518125	2.542123
	2.517485	2.533164
	2.519085	2.529324
	2.518125	2.529964
	2.519725	2.537323
	2.520365	2.529964
	2.522604	2.529964
	2.526124	2.546603
	2.527084	2.517485
	2.528364	2.512045
	2.530924	2.530924
	2.531564	2.508205
	2.530924	2.506606
	2.527724	2.512685
	2.525804	2.529004
	2.522604	2.546603
	2.519085	2.558122
	2.513965	2.523564
	2.511085	2.526124
	2.508845	2.528364
	2.507885	2.529964
	2.506606	2.539883
	2.506606	2.524844
	2.506926	2.521964
	2.508205	2.519085
	2.508525	2.517165
	2.508525	2.513005
	2.509165	2.512365
	2.510765	2.520365
	2.512365	2.557482
	2.515885	2.507885
	2.517485	2.506926
	2.520045	2.504366
	2.522284	2.503726
	2.525164	2.505966
	2.527404	2.511405
	2.530284	2.639716
	2.531884	2.504686
	2.532844	2.509485
	2.533804	2.513965
	2.533804	2.521324
	2.531564	2.526124
	2.531244	2.535083
	2.529644	2.646115
	2.526124	2.532204
	2.525484	2.531244
	2.522604	2.529004
	2.519405	2.526124
	2.519405	2.522284
	2.518445	2.520685
	2.520365	2.520365
	2.521324	2.545963
	2.525484	2.507565
	2.529644	2.509485
	2.533804	2.509805
	2.537963	2.510765
	2.543083	2.513645
	2.547243	2.516205
	2.548203	2.518445
	2.549802	2.515245

