LabVIEW Measurement	
Writer_Version	2
Reader_Version	2
Separator	Tab
Decimal_Separator	.
Multi_Headings	Yes
X_Columns	No
Time_Pref	Absolute
Operator	jerem
Date	2023/02/07
Time	13:42:05.536245130034976195
***End_of_Header***	
	
Channels	2		
Samples	6806	6806	
Date	2023/02/07	2023/02/07	
Time	13:42:05.536245130034976195	13:42:05.5362576297809113966	
Y_Unit_Label	Volts	Volts	
X_Dimension	Time	Time	
X0	0.0000000000000000E+0	0.0000000000000000E+0	
Delta_X	0.001000	0.001000	
***End_of_Header***			
X_Value	Voltage_0	Voltage_1	Comment
	2.542443	2.478128
	2.540523	2.477808
	2.542763	2.477488
	2.548203	2.477168
	2.547563	2.475248
	2.548203	2.476208
	2.553002	2.475568
	2.554602	2.475888
	2.556522	2.476528
	2.555882	2.479408
	2.558122	2.483887
	2.555882	2.487727
	2.553962	2.492207
	2.550122	2.498606
	2.556202	2.503406
	2.546923	2.508845
	2.545003	2.513645
	2.546923	2.518125
	2.547563	2.520685
	2.549162	2.523244
	2.553322	2.525164
	2.559722	2.525164
	2.564521	2.525804
	2.568681	2.524844
	2.569001	2.524844
	2.569321	2.524204
	2.564841	2.523244
	2.558122	2.522924
	2.547883	2.521964
	2.541483	2.521644
	2.530284	2.522924
	2.517485	2.522284
	2.508845	2.522924
	2.504686	2.523564
	2.500846	2.523564
	2.502126	2.525484
	2.508845	2.524844
	2.519085	2.524524
	2.528044	2.522924
	2.544683	2.519085
	2.558762	2.514925
	2.573481	2.509165
	2.586280	2.502446
	2.593959	2.494126
	2.601319	2.486767
	2.605158	2.479088
	2.606118	2.472048
	2.604518	2.466928
	2.602919	2.464369
	2.599079	2.462769
	2.594279	2.463089
	2.587240	2.466288
	2.582440	2.471408
	2.578600	2.476208
	2.573161	2.484207
	2.566761	2.493167
	2.560042	2.501486
	2.552362	2.509485
	2.544683	2.515565
	2.536043	2.519725
	2.526124	2.521644
	2.517485	2.519725
	2.508205	2.515885
	2.504046	2.508205
	2.498606	2.497326
	2.492847	2.484207
	2.490927	2.469488
	2.490607	2.456369
	2.489967	2.443890
	2.490927	2.434291
	2.492527	2.429811
	2.493487	2.429171
	2.495726	2.432371
	2.497646	2.439730
	2.501166	2.450290
	2.501806	2.460849
	2.503726	2.470448
	2.504046	2.477488
	2.504686	2.478448
	2.505006	2.475888
	2.504366	2.467568
	2.503406	2.454769
	2.502126	2.439410
	2.500846	2.425651
	2.498926	2.413172
	2.498606	2.406133
	2.497646	2.403253
	2.498926	2.408693
	2.500206	2.418612
	2.503086	2.434611
	2.507885	2.451570
	2.513325	2.470128
	2.517485	2.484207
	2.522284	2.493167
	2.527404	2.495406
	2.531244	2.490287
	2.533484	2.477488
	2.535083	2.459249
	2.534444	2.440050
	2.532844	2.424372
	2.529004	2.413812
	2.523564	2.416052
	2.518125	2.431731
	2.512045	2.463729
	2.506606	2.507246
	2.503406	2.560042
	2.503406	2.616998
	2.505966	2.672354
	2.512685	2.709151
	2.521324	2.744348
	2.531244	2.765787
	2.539883	2.770906
	2.552362	2.759067
	2.558762	2.732509
	2.564841	2.696992
	2.564841	2.658915
	2.563241	2.625317
	2.556842	2.602599
	2.549802	2.593639
	2.544043	2.602599
	2.539883	2.625957
	2.538923	2.661794
	2.542443	2.703711
	2.552042	2.746268
	2.567401	2.782106
	2.580200	2.807384
	2.599399	2.816983
	2.620517	2.808664
	2.637476	2.784025
	2.649635	2.745948
	2.653795	2.701151
	2.653475	2.654755
	2.645795	2.613158
	2.632996	2.581480
	2.618277	2.562601
	2.608358	2.558442
	2.598439	2.568041
	2.590119	2.588840
	2.588840	2.614758
	2.594599	2.642596
	2.599079	2.664674
	2.609318	2.679393
	2.620197	2.682273
	2.627877	2.672674
	2.631397	2.651555
	2.631716	2.625637
	2.626597	2.596519
	2.615398	2.568681
	2.599719	2.546283
	2.588520	2.534124
	2.571881	2.531244
	2.557802	2.538283
	2.545003	2.552362
	2.535083	2.569001
	2.530284	2.586600
	2.528684	2.599079
	2.528044	2.605478
	2.529964	2.603559
	2.531564	2.592359
	2.533164	2.572521
	2.533804	2.547563
	2.534764	2.520045
	2.535403	2.493167
	2.535083	2.473968
	2.534124	2.460209
	2.532844	2.446770
	2.531564	2.441650
	2.530284	2.441010
	2.529004	2.443570
	2.527404	2.449010
	2.527724	2.453809
	2.526124	2.456369
	2.524524	2.455089
	2.522284	2.451570
	2.520685	2.444210
	2.517805	2.436531
	2.517805	2.428211
	2.515245	2.421172
	2.512365	2.419572
	2.511405	2.418292
	2.510445	2.425331
	2.509485	2.433651
	2.508525	2.444850
	2.508525	2.455409
	2.508525	2.466928
	2.510125	2.473968
	2.513325	2.477808
	2.516845	2.477168
	2.517805	2.474288
	2.522924	2.466608
	2.528364	2.459889
	2.531244	2.452849
	2.533804	2.447410
	2.535723	2.445490
	2.537323	2.447090
	2.536363	2.454129
	2.534124	2.465009
	2.532524	2.479408
	2.529004	2.493487
	2.524524	2.506926
	2.521005	2.519405
	2.518765	2.529004
	2.517485	2.534444
	2.515565	2.536363
	2.513325	2.534124
	2.512045	2.530284
	2.509165	2.527084
	2.508525	2.523564
	2.506926	2.521644
	2.505646	2.520365
	2.503406	2.521324
	2.501806	2.524204
	2.501806	2.526124
	2.503086	2.529324
	2.502766	2.531564
	2.505646	2.530924
	2.508845	2.528364
	2.511725	2.524844
	2.516205	2.519085
	2.520045	2.511405
	2.523564	2.503726
	2.525484	2.497646
	2.527724	2.491567
	2.528684	2.489327
	2.528684	2.488367
	2.529644	2.489967
	2.529004	2.493167
	2.529324	2.497326
	2.530604	2.499246
	2.531244	2.501166
	2.534124	2.501166
	2.536043	2.499566
	2.538603	2.495726
	2.542443	2.491887
	2.545963	2.485807
	2.548523	2.481647
	2.548842	2.478768
	2.550442	2.476848
	2.550762	2.479728
	2.549802	2.483887
	2.546923	2.488367
	2.545323	2.495726
	2.542763	2.500846
	2.537963	2.506926
	2.533804	2.510765
	2.530284	2.511405
	2.526764	2.511405
	2.521964	2.509485
	2.516845	2.508205
	2.511085	2.505646
	2.508525	2.504046
	2.503086	2.503406
	2.498286	2.504366
	2.495406	2.506606
	2.494126	2.509805
	2.494446	2.513325
	2.496366	2.515885
	2.499566	2.516525
	2.505326	2.515885
	2.509805	2.511725
	2.513325	2.505646
	2.518765	2.497646
	2.524844	2.488047
	2.528684	2.477168
	2.531884	2.467568
	2.533484	2.459889
	2.533804	2.456049
	2.534764	2.454129
	2.534124	2.455089
	2.533804	2.457969
	2.533164	2.463409
	2.530604	2.469488
	2.529644	2.473328
	2.527084	2.478128
	2.526124	2.480367
	2.524524	2.479408
	2.522604	2.476208
	2.520045	2.471088
	2.516525	2.464689
	2.515565	2.456049
	2.513965	2.447730
	2.512045	2.439730
	2.509165	2.435571
	2.508845	2.431731
	2.508845	2.430131
	2.508205	2.432051
	2.509485	2.436531
	2.510445	2.441970
	2.510765	2.449330
	2.512365	2.456049
	2.513325	2.463409
	2.512685	2.471088
	2.514605	2.477808
	2.514285	2.482607
	2.513325	2.486127
	2.512045	2.490287
	2.512685	2.491567
	2.511725	2.493487
	2.511405	2.494766
	2.509485	2.497006
	2.510125	2.499566
	2.508205	2.504366
	2.506606	2.509485
	2.506286	2.517165
	2.506286	2.523564
	2.506606	2.531244
	2.506926	2.538283
	2.509165	2.542443
	2.510765	2.544683
	2.513325	2.544683
	2.516525	2.539563
	2.518445	2.534124
	2.520365	2.525804
	2.522284	2.516525
	2.523884	2.506926
	2.524524	2.497966
	2.522284	2.493487
	2.522604	2.490287
	2.522604	2.488687
	2.521644	2.492207
	2.521324	2.497326
	2.521964	2.503726
	2.522284	2.509165
	2.524524	2.514285
	2.527404	2.519085
	2.529644	2.519725
	2.532204	2.517165
	2.535083	2.514925
	2.536683	2.508525
	2.537963	2.500526
	2.538603	2.491567
	2.539243	2.483247
	2.538283	2.475568
	2.537643	2.469808
	2.536683	2.467888
	2.537003	2.468848
	2.536043	2.472368
	2.537963	2.478448
	2.538283	2.485167
	2.540203	2.490607
	2.541483	2.496366
	2.542443	2.501486
	2.543083	2.502126
	2.543403	2.501166
	2.541803	2.497966
	2.539563	2.493167
	2.536363	2.489327
	2.533484	2.486127
	2.528364	2.483887
	2.523564	2.484847
	2.518445	2.486767
	2.514925	2.491887
	2.512365	2.497006
	2.511085	2.502446
	2.511725	2.507885
	2.513005	2.511085
	2.515245	2.510125
	2.518765	2.506286
	2.523244	2.501166
	2.525804	2.492847
	2.528364	2.483887
	2.530604	2.475888
	2.530284	2.469168
	2.528364	2.465968
	2.525804	2.463089
	2.523244	2.465649
	2.519405	2.468208
	2.517165	2.474928
	2.514925	2.633316
	2.513005	2.588200
	2.513325	2.531884
	2.514605	2.493487
	2.515565	2.495086
	2.516845	2.495406
	2.517165	2.576041
	2.516525	2.529004
	2.513965	2.515885
	2.511405	2.647395
	2.508205	2.481647
	2.504686	2.481647
	2.502126	2.567721
	2.500526	2.520685
	2.500206	2.521964
	2.501806	2.488367
	2.506926	2.489967
	2.511085	2.512365
	2.518445	2.594599
	2.525804	2.522284
	2.533804	2.508525
	2.539563	2.685473
	2.542123	2.546603
	2.542123	2.482287
	2.538923	2.476208
	2.535723	2.570601
	2.531884	2.489967
	2.526124	2.483887
	2.520685	2.505966
	2.515885	2.483247
	2.512365	2.489967
	2.513005	2.485487
	2.513645	2.494126
	2.516845	2.652195
	2.520685	2.493487
	2.523884	2.499886
	2.525164	2.498606
	2.527724	2.501166
	2.528044	2.548203
	2.526764	2.510125
	2.522924	2.503406
	2.519725	2.507565
	2.517805	2.501806
	2.516525	2.533484
	2.513645	2.514285
	2.515565	2.493487
	2.515885	2.497326
	2.518445	2.491887
	2.522924	2.491567
	2.527084	2.493806
	2.527724	2.536363
	2.531564	2.495406
	2.531244	2.498286
	2.529324	2.498926
	2.527724	2.501806
	2.526444	2.509165
	2.522924	2.607718
	2.521324	2.505646
	2.521005	2.502446
	2.521005	2.500206
	2.521964	2.498926
	2.525804	2.552042
	2.529324	2.488047
	2.531884	2.481647
	2.534444	2.475888
	2.536363	2.473648
	2.537323	2.479088
	2.538283	2.478448
	2.537963	2.468528
	2.536363	2.471408
	2.534444	2.477168
	2.533164	2.483567
	2.531564	2.493487
	2.529644	2.515885
	2.530284	2.498926
	2.529964	2.502446
	2.529644	2.503726
	2.528684	2.508525
	2.528364	2.516845
	2.528044	2.493487
	2.526764	2.489647
	2.524844	2.485807
	2.522924	2.486767
	2.520685	2.557802
	2.518765	2.485487
	2.517165	2.489967
	2.516525	2.494766
	2.517485	2.500846
	2.520045	2.525484
	2.520365	2.506286
	2.522924	2.507565
	2.527404	2.508205
	2.529004	2.509485
	2.532204	2.556842
	2.532524	2.495726
	2.531884	2.490287
	2.530604	2.486447
	2.529964	2.484527
	2.528044	2.493806
	2.526444	2.484847
	2.524844	2.490927
	2.521644	2.492527
	2.519725	2.498926
	2.518765	2.504046
	2.516845	2.558442
	2.515885	2.505966
	2.516525	2.506606
	2.516845	2.504046
	2.516845	2.502446
	2.519085	2.545643
	2.518445	2.490287
	2.519405	2.486447
	2.519085	2.485167
	2.519405	2.485167
	2.519725	2.503726
	2.518445	2.487407
	2.517485	2.489967
	2.516525	2.490927
	2.515565	2.492847
	2.514925	2.524204
	2.514605	2.492527
	2.515885	2.490927
	2.516525	2.489967
	2.517805	2.488367
	2.519405	2.531884
	2.521324	2.488367
	2.521964	2.489967
	2.522924	2.491887
	2.521644	2.498286
	2.520045	2.531244
	2.517805	2.500526
	2.517485	2.503726
	2.516525	2.505006
	2.515565	2.506606
	2.514925	2.621477
	2.516205	2.500526
	2.515565	2.497966
	2.517485	2.493487
	2.518125	2.490927
	2.520045	2.641636
	2.537963	2.479408
	2.525164	2.476208
	2.526444	2.474608
	2.527084	2.480047
	2.528044	2.475248
	2.528684	2.476528
	2.526444	2.481007
	2.527084	2.484847
	2.532204	2.512365
	2.543723	2.488047
	2.569001	2.489007
	2.522604	2.489327
	2.521005	2.490287
	2.519725	2.518445
	2.516845	2.489327
	2.513325	2.489327
	2.511725	2.490607
	2.510445	2.491887
	2.519085	2.632356
	2.521964	2.494126
	2.507885	2.497006
	2.518445	2.498926
	2.545963	2.502126
	2.514925	2.500206
	2.536363	2.498606
	2.521005	2.496686
	2.525804	2.493806
	2.529644	2.529964
	2.539243	2.483887
	2.542763	2.479408
	2.540203	2.477488
	2.538283	2.480367
	2.537323	2.653155
	2.574761	2.479728
	2.531884	2.484527
	2.531884	2.490607
	2.530284	2.502766
	2.528364	2.501486
	2.527404	2.505326
	2.526764	2.506926
	2.525804	2.507885
	2.520045	2.561002
	2.525164	2.500206
	2.519405	2.493806
	2.519085	2.489327
	2.519405	2.490607
	2.521005	2.479088
	2.523244	2.475248
	2.524524	2.472048
	2.525164	2.474288
	2.527084	2.473968
	2.537323	2.475888
	2.529964	2.477808
	2.529964	2.481647
	2.527404	2.492847
	2.528364	2.483567
	2.529644	2.481647
	2.525164	2.479728
	2.523564	2.479728
	2.522604	2.489327
	2.523244	2.475248
	2.521964	2.474288
	2.520685	2.476848
	2.520045	2.577000
	2.522924	2.484847
	2.522604	2.490287
	2.522604	2.496046
	2.524204	2.510125
	2.524524	2.505646
	2.529644	2.507885
	2.527084	2.508205
	2.528364	2.506606
	2.528684	2.540843
	2.529644	2.497966
	2.531244	2.493806
	2.530284	2.488687
	2.529644	2.507246
	2.529644	2.484207
	2.525804	2.483247
	2.524844	2.485167
	2.523564	2.493806
	2.521324	2.488047
	2.540523	2.492207
	2.517805	2.494126
	2.516205	2.508205
	2.516845	2.672993
	2.519085	2.495406
	2.516205	2.494766
	2.517485	2.492847
	2.518125	2.514605
	2.519085	2.490287
	2.522284	2.485807
	2.522604	2.484847
	2.523564	2.486127
	2.523244	2.479728
	2.524204	2.478128
	2.523244	2.477808
	2.525164	2.486767
	2.523564	2.477168
	2.523244	2.477488
	2.522604	2.480367
	2.523564	2.487087
	2.524204	2.545003
	2.536363	2.492847
	2.527724	2.497966
	2.527084	2.503726
	2.529004	2.667234
	2.532204	2.560042
	2.527724	2.506286
	2.525484	2.503406
	2.524844	2.546603
	2.524844	2.496046
	2.521324	2.491567
	2.519405	2.489007
	2.518445	2.618597
	2.520045	2.479088
	2.518125	2.479088
	2.518445	2.481967
	2.520685	2.499886
	2.525164	2.562282
	2.526124	2.560682
	2.528684	2.503726
	2.529964	2.520045
	2.533484	2.569321
	2.533804	2.513325
	2.534444	2.511085
	2.535723	2.514925
	2.535403	2.556842
	2.534124	2.485807
	2.533484	2.477488
	2.532844	2.498926
	2.534124	2.465009
	2.531564	2.464049
	2.531884	2.468528
	2.532204	2.489007
	2.534124	2.501166
	2.533164	2.501166
	2.534764	2.514605
	2.534124	2.534124
	2.535723	2.539883
	2.534124	2.540523
	2.533164	2.527404
	2.532844	2.537643
	2.530924	2.550122
	2.526764	2.490927
	2.526124	2.485487
	2.523244	2.513965
	2.522284	2.558442
	2.516845	2.507565
	2.514925	2.462769
	2.511405	2.498286
	2.519725	2.494446
	2.510765	2.502126
	2.509485	2.504686
	2.509805	2.524524
	2.506286	2.561642
	2.510445	2.561962
	2.511405	2.523884
	2.513005	2.522924
	2.515565	2.523564
	2.512365	2.521005
	2.512045	2.494446
	2.508845	2.499886
	2.508525	2.523884
	2.506286	2.467888
	2.505646	2.471088
	2.504366	2.468528
	2.503726	2.476528
	2.505006	2.482927
	2.507885	2.496046
	2.513005	2.503406
	2.514925	2.514925
	2.520045	2.518445
	2.525164	2.520045
	2.529644	2.525484
	2.531244	2.513965
	2.532524	2.504046
	2.532844	2.498286
	2.535723	2.491247
	2.529324	2.473328
	2.527404	2.465649
	2.525804	2.464049
	2.524204	2.464689
	2.523884	2.466928
	2.524204	2.477488
	2.525484	2.486767
	2.529324	2.499566
	2.529644	2.509165
	2.532204	2.518445
	2.539563	2.523564
	2.534444	2.521964
	2.535403	2.519405
	2.533164	2.520045
	2.532524	2.504046
	2.529644	2.487727
	2.526764	2.478448
	2.525804	2.471408
	2.522604	2.466928
	2.521644	2.466288
	2.520365	2.470448
	2.520365	2.480047
	2.521324	2.489967
	2.522924	2.501166
	2.524844	2.512685
	2.561322	2.521005
	2.524204	2.521964
	2.524524	2.523564
	2.526124	2.517485
	2.525804	2.505646
	2.526764	2.491887
	2.527084	2.478448
	2.535403	2.463729
	2.529644	2.452849
	2.531884	2.447090
	2.532524	2.445490
	2.534444	2.447410
	2.535403	2.453169
	2.536363	2.464689
	2.535403	2.475568
	2.535083	2.485487
	2.533804	2.498286
	2.530284	2.505006
	2.553322	2.509805
	2.527084	2.509165
	2.524524	2.509165
	2.522924	2.500526
	2.520685	2.493167
	2.519085	2.487407
	2.517485	2.481007
	2.515245	2.478128
	2.513965	2.478768
	2.511405	2.483567
	2.510765	2.489967
	2.510445	2.497966
	2.509485	2.506606
	2.510445	2.515245
	2.517485	2.519405
	2.514285	2.519725
	2.516845	2.518445
	2.521324	2.510445
	2.524524	2.500206
	2.529324	2.488367
	2.531564	2.476208
	2.537003	2.465649
	2.537323	2.459249
	2.538603	2.456689
	2.540523	2.457329
	2.539883	2.462769
	2.538923	2.473008
	2.534764	2.484207
	2.553322	2.495726
	2.529964	2.505966
	2.527724	2.512365
	2.526444	2.516525
	2.524204	2.514925
	2.522284	2.513965
	2.521005	2.507246
	2.520685	2.499886
	2.518445	2.493806
	2.518445	2.489327
	2.520045	2.487407
	2.516845	2.487407
	2.515885	2.488367
	2.514925	2.492207
	2.520045	2.497326
	2.514925	2.500526
	2.514605	2.503406
	2.545323	2.505006
	2.518445	2.504366
	2.522604	2.502766
	2.525164	2.498286
	2.527084	2.493806
	2.529964	2.491247
	2.530604	2.491247
	2.532204	2.487407
	2.530604	2.484527
	2.529324	2.483887
	2.533804	2.484207
	2.524844	2.483567
	2.521324	2.482927
	2.520045	2.482927
	2.516845	2.482287
	2.515565	2.481967
	2.515565	2.481967
	2.515245	2.481007
	2.515885	2.480367
	2.516205	2.480687
	2.517485	2.480687
	2.517485	2.481647
	2.517485	2.481967
	2.518125	2.482287
	2.519085	2.481007
	2.516525	2.478768
	2.516205	2.476208
	2.516525	2.472368
	2.517485	2.469488
	2.517485	2.466288
	2.515885	2.464049
	2.518765	2.463729
	2.520365	2.465329
	2.521644	2.466928
	2.521644	2.471088
	2.523244	2.475248
	2.525164	2.481327
	2.523884	2.487087
	2.523884	2.490607
	2.523884	2.492847
	2.523564	2.492847
	2.522604	2.490287
	2.522284	2.485807
	2.521964	2.480687
	2.523564	2.474928
	2.523884	2.470128
	2.525804	2.466928
	2.524844	2.467248
	2.527404	2.468848
	2.528044	2.473328
	2.526764	2.479408
	2.526444	2.486767
	2.527084	2.494766
	2.524844	2.501486
	2.526124	2.507246
	2.528684	2.511085
	2.524844	2.511725
	2.535083	2.509805
	2.536683	2.507246
	2.545003	2.504366
	2.544363	2.501486
	2.545963	2.499246
	2.550442	2.499566
	2.569321	2.499886
	2.546603	2.502446
	2.545003	2.507246
	2.538923	2.513325
	2.537323	2.519085
	2.533804	2.524204
	2.529644	2.528684
	2.527084	2.529964
	2.527404	2.530604
	2.533804	2.528684
	2.528684	2.525484
	2.529324	2.519725
	2.539243	2.513645
	2.531244	2.507565
	2.531564	2.502126
	2.539243	2.496366
	2.529004	2.492207
	2.529324	2.491887
	2.523564	2.492847
	2.529004	2.493487
	2.531884	2.496686
	2.536043	2.500846
	2.550122	2.503406
	2.542763	2.505966
	2.550122	2.506606
	2.556522	2.506926
	2.553642	2.501806
	2.556842	2.496366
	2.558762	2.490927
	2.551722	2.484207
	2.548203	2.477808
	2.542763	2.473968
	2.539243	2.470768
	2.535723	2.472368
	2.531884	2.474928
	2.530924	2.480047
	2.530924	2.487407
	2.530924	2.494446
	2.527724	2.500206
	2.528684	2.503086
	2.528044	2.504366
	2.528364	2.501166
	2.525804	2.497646
	2.525804	2.490607
	2.522284	2.484527
	2.519405	2.479088
	2.513005	2.476528
	2.530924	2.476208
	2.518765	2.479728
	2.523564	2.486127
	2.524844	2.491887
	2.528364	2.499246
	2.531564	2.504686
	2.534444	2.510125
	2.533804	2.511085
	2.534444	2.511725
	2.531564	2.507885
	2.529964	2.504686
	2.529004	2.500526
	2.521324	2.496046
	2.527404	2.490927
	2.528684	2.487087
	2.534444	2.485487
	2.542763	2.484527
	2.551722	2.486447
	2.560362	2.487727
	2.567401	2.490607
	2.575401	2.491247
	2.577960	2.491247
	2.580200	2.490927
	2.577000	2.489327
	2.573481	2.487407
	2.567401	2.482287
	2.559402	2.478768
	2.550442	2.474928
	2.543083	2.471088
	2.537963	2.468208
	2.534444	2.467888
	2.531564	2.468208
	2.530284	2.469808
	2.529644	2.473648
	2.530284	2.476528
	2.529964	2.480047
	2.529004	2.482607
	2.528684	2.483887
	2.526764	2.506926
	2.523564	2.484207
	2.521964	2.482287
	2.519085	2.480047
	2.517165	2.477168
	2.517165	2.474928
	2.518445	2.563241
	2.519725	2.475888
	2.521644	2.479088
	2.522924	2.618277
	2.524524	2.490287
	2.522284	2.495726
	2.524524	2.520045
	2.522604	2.506286
	2.520045	2.591079
	2.517165	2.566121
	2.512685	2.511725
	2.508525	2.608998
	2.505646	2.577640
	2.504366	2.506606
	2.502446	2.526764
	2.503726	2.605798
	2.505966	2.515245
	2.510125	2.517485
	2.511405	2.605478
	2.515245	2.520685
	2.518125	2.526444
	2.521964	2.520045
	2.521324	2.531884
	2.522604	2.535083
	2.521964	2.516845
	2.521964	2.523564
	2.519725	2.522604
	2.519725	2.517165
	2.519405	2.505966
	2.521324	2.513325
	2.522604	2.507565
	2.526764	2.502766
	2.531244	2.575401
	2.533164	2.505326
	2.537963	2.504686
	2.541163	2.503086
	2.543083	2.511085
	2.543083	2.509485
	2.543083	2.513325
	2.543083	2.509165
	2.541483	2.502446
	2.541163	2.499246
	2.540523	2.490927
	2.540843	2.506606
	2.542443	2.480047
	2.545003	2.476528
	2.548523	2.485167
	2.550442	2.472048
	2.553002	2.468528
	2.555882	2.468848
	2.555242	2.467888
	2.555562	2.468208
	2.554282	2.468848
	2.551722	2.468848
	2.547883	2.473968
	2.543723	2.467888
	2.539563	2.466288
	2.538603	2.479088
	2.536043	2.463729
	2.533484	2.462129
	2.532844	2.461489
	2.533164	2.460209
	2.532524	2.460209
	2.532844	2.460849
	2.532844	2.460529
	2.531884	2.469808
	2.529964	2.460529
	2.527724	2.461169
	2.525164	2.486127
	2.521005	2.461809
	2.517485	2.462449
	2.516205	2.461169
	2.513645	2.459249
	2.511405	2.466608
	2.510765	2.458609
	2.509165	2.456369
	2.509805	2.466608
	2.508205	2.454129
	2.508845	2.451890
	2.507246	2.451250
	2.507885	2.449650
	2.506606	2.454449
	2.506286	2.449970
	2.506606	2.450290
	2.507565	2.454129
	2.509805	2.453169
	2.511725	2.455089
	2.513965	2.457009
	2.517165	2.457649
	2.520365	2.460529
	2.521644	2.459889
	2.525484	2.460209
	2.527724	2.465968
	2.528044	2.458929
	2.527724	2.464689
	2.528044	2.458609
	2.526444	2.459249
	2.524844	2.461489
	2.523884	2.463089
	2.523564	2.467248
	2.522604	2.478768
	2.521964	2.474928
	2.521324	2.481007
	2.520685	2.482287
	2.521324	2.486447
	2.522604	2.489007
	2.523564	2.489327
	2.523564	2.490287
	2.522604	2.573161
	2.521324	2.483567
	2.519405	2.482607
	2.516205	2.481007
	2.514605	2.479728
	2.511405	2.481007
	2.509165	2.481007
	2.506606	2.483887
	2.507885	2.486447
	2.507885	2.491567
	2.510445	2.496686
	2.512365	2.499886
	2.514925	2.503086
	2.519725	2.523244
	2.522284	2.504366
	2.525484	2.502446
	2.527724	2.498926
	2.527084	2.498286
	2.526124	2.494126
	2.525164	2.490927
	2.523884	2.488687
	2.521644	2.488367
	2.521644	2.489007
	2.520365	2.494766
	2.521964	2.497646
	2.523244	2.503726
	2.524204	2.506926
	2.531564	2.511405
	2.527724	2.515885
	2.528684	2.516525
	2.527724	2.516845
	2.529004	2.607718
	2.528044	2.509805
	2.529004	2.504366
	2.564841	2.499886
	2.529324	2.495726
	2.529964	2.496046
	2.543403	2.489327
	2.535083	2.490607
	2.553962	2.492207
	2.550762	2.495406
	2.547563	2.499886
	2.557482	2.502126
	2.547243	2.506286
	2.546283	2.507885
	2.565481	2.509165
	2.547563	2.508845
	2.588520	2.505966
	2.545643	2.502446
	2.547243	2.549802
	2.555242	2.495406
	2.561002	2.492527
	2.561322	2.491567
	2.541483	2.490287
	2.573801	2.490927
	2.553962	2.492207
	2.558122	2.495086
	2.549482	2.497646
	2.547883	2.500206
	2.550442	2.502766
	2.554282	2.505006
	2.552362	2.504686
	2.550442	2.506926
	2.546283	2.500526
	2.552682	2.496686
	2.545963	2.492527
	2.542763	2.487727
	2.542123	2.483567
	2.540523	2.480687
	2.539243	2.496366
	2.541483	2.478768
	2.546603	2.482287
	2.545003	2.484847
	2.570921	2.488687
	2.543723	2.492207
	2.542763	2.495406
	2.543723	2.500846
	2.544683	2.500846
	2.551722	2.503406
	2.545323	2.503726
	2.547243	2.505966
	2.547563	2.510125
	2.548203	2.508525
	2.550442	2.511085
	2.550762	2.512365
	2.553962	2.514605
	2.550442	2.527084
	2.549482	2.516845
	2.547563	2.515885
	2.547563	2.515245
	2.566441	2.510125
	2.547563	2.506606
	2.550122	2.501806
	2.550762	2.496686
	2.553642	2.492847
	2.608358	2.489327
	2.554922	2.485807
	2.554602	2.485167
	2.555882	2.488367
	2.554602	2.485167
	2.553002	2.483887
	2.552362	2.481647
	2.554282	2.479408
	2.549162	2.492527
	2.548523	2.472048
	2.547563	2.468208
	2.544363	2.463089
	2.555562	2.460209
	2.537963	2.459889
	2.541483	2.460209
	2.527404	2.463409
	2.521005	2.467248
	2.517485	2.471088
	2.512365	2.477168
	2.509485	2.481647
	2.505006	2.497006
	2.503406	2.488687
	2.502126	2.488367
	2.503086	2.487087
	2.555242	2.484207
	2.505326	2.481007
	2.508845	2.475888
	2.508525	2.475888
	2.510445	2.471408
	2.511725	2.470768
	2.513965	2.474928
	2.521964	2.478768
	2.521324	2.484527
	2.525484	2.493167
	2.532524	2.502446
	2.547243	2.509485
	2.541803	2.514925
	2.546923	2.518125
	2.553002	2.519725
	2.555242	2.515885
	2.555242	2.515885
	2.555242	2.513005
	2.552362	2.510445
	2.548203	2.507885
	2.542763	2.507246
	2.538283	2.508845
	2.532524	2.512685
	2.527404	2.513645
	2.522924	2.518445
	2.528364	2.519725
	2.518765	2.523884
	2.517485	2.525164
	2.517485	2.525164
	2.518765	2.621477
	2.519085	2.520685
	2.521644	2.517485
	2.527084	2.511085
	2.524524	2.505006
	2.525484	2.498606
	2.529004	2.493487
	2.529004	2.501166
	2.530284	2.482607
	2.534444	2.484527
	2.537643	2.483247
	2.541163	2.482287
	2.543403	2.483887
	2.548203	2.486447
	2.550122	2.489327
	2.552682	2.489007
	2.554282	2.493167
	2.552682	2.490927
	2.552362	2.490927
	2.550442	2.490287
	2.551402	2.491247
	2.542763	2.491567
	2.541163	2.491887
	2.535403	2.502126
	2.531564	2.496686
	2.524844	2.497966
	2.521005	2.500526
	2.518445	2.502766
	2.515565	2.505966
	2.512685	2.509805
	2.508205	2.559722
	2.507246	2.519085
	2.505966	2.527724
	2.505646	2.533164
	2.505326	2.542443
	2.506926	2.548842
	2.531564	2.555882
	2.513005	2.560042
	2.515885	2.561642
	2.519725	2.573801
	2.523244	2.557482
	2.525164	2.553002
	2.527724	2.546283
	2.529964	2.540523
	2.530284	2.533484
	2.542123	2.527404
	2.532204	2.523884
	2.533484	2.521324
	2.536363	2.528364
	2.538923	2.515565
	2.543083	2.512045
	2.545323	2.505646
	2.549162	2.498606
	2.552682	2.491247
	2.562282	2.482287
	2.558122	2.473328
	2.559082	2.464369
	2.558442	2.533804
	2.557482	2.452849
	2.553322	2.453169
	2.553002	2.456049
	2.548203	2.460529
	2.543723	2.468528
	2.539883	2.478128
	2.533804	2.485167
	2.530924	2.490927
	2.526444	2.495406
	2.521644	2.495086
	2.519405	2.496686
	2.518445	2.485487
	2.518125	2.479728
	2.520685	2.470128
	2.525804	2.463089
	2.535083	2.456689
	2.552042	2.453169
	2.556202	2.450290
	2.572841	2.452529
	2.587240	2.451890
	2.602599	2.461169
	2.612838	2.469808
	2.622117	2.472048
	2.630117	2.474608
	2.633316	2.475888
	2.633956	2.476528
	2.633636	2.475568
	2.672034	2.473648
	2.628197	2.470768
	2.624357	2.471408
	2.618597	2.543403
	2.618597	2.476848
	2.614438	2.490287
	2.611558	2.489967
	2.609638	2.499886
	2.609958	2.508845
	2.610598	2.516205
	2.613158	2.524204
	2.615398	2.528684
	2.621157	2.530284
	2.631397	2.531564
	2.628517	2.529964
	2.634276	2.526444
	2.634916	2.573801
	2.634916	2.514925
	2.632676	2.513005
	2.626917	2.501166
	2.617957	2.494766
	2.608358	2.490287
	2.594919	2.485807
	2.587880	2.482927
	2.577640	2.481967
	2.567721	2.481647
	2.574121	2.483247
	2.555242	2.485807
	2.553962	2.488047
	2.550122	2.489967
	2.548523	2.492847
	2.546603	2.517165
	2.544363	2.494446
	2.542123	2.492847
	2.539883	2.489327
	2.538283	2.485487
	2.535083	2.480687
	2.533484	2.476528
	2.531884	2.472688
	2.534764	2.471408
	2.533804	2.470768
	2.534444	2.472688
	2.536363	2.476208
	2.541483	2.481007
	2.541803	2.484207
	2.545003	2.490287
	2.547563	2.624357
	2.548203	2.494126
	2.548203	2.497646
	2.549802	2.494126
	2.550122	2.490927
	2.549802	2.484527
	2.547243	2.478128
	2.546283	2.474608
	2.546923	2.468208
	2.545963	2.464689
	2.543403	2.464689
	2.543723	2.465649
	2.542763	2.470128
	2.541163	2.474928
	2.543723	2.483247
	2.537003	2.490607
	2.540523	2.496686
	2.535083	2.501806
	2.532844	2.506606
	2.529964	2.509485
	2.527724	2.509485
	2.526764	2.517485
	2.523884	2.506606
	2.521964	2.515565
	2.520685	2.501806
	2.520045	2.502126
	2.516845	2.498606
	2.516525	2.499566
	2.516525	2.499566
	2.516845	2.501806
	2.517165	2.502446
	2.518125	2.504046
	2.520685	2.506606
	2.522284	2.505966
	2.525484	2.505006
	2.526444	2.504686
	2.529004	2.502126
	2.531564	2.501166
	2.534124	2.497646
	2.580840	2.495086
	2.537003	2.491887
	2.548203	2.489967
	2.541163	2.488367
	2.543723	2.486767
	2.543083	2.487407
	2.544683	2.487407
	2.545003	2.489647
	2.545323	2.491567
	2.545003	2.492207
	2.547243	2.497646
	2.546283	2.549802
	2.545643	2.500846
	2.546603	2.510445
	2.545323	2.503406
	2.543403	2.520045
	2.540843	2.499566
	2.538283	2.505966
	2.535083	2.493806
	2.532524	2.490607
	2.530604	2.485807
	2.526764	2.484847
	2.523884	2.478128
	2.522604	2.475568
	2.522604	2.473008
	2.522284	2.473008
	2.524524	2.471728
	2.528044	2.473648
	2.531884	2.474928
	2.535083	2.477168
	2.536683	2.479088
	2.541483	2.481007
	2.542763	2.482287
	2.542763	2.483247
	2.543403	2.483887
	2.542443	2.483887
	2.539563	2.482927
	2.535083	2.482287
	2.531884	2.480687
	2.529004	2.480367
	2.525804	2.481327
	2.522284	2.483247
	2.521644	2.486767
	2.519725	2.491247
	2.521005	2.495406
	2.521324	2.499566
	2.522284	2.502766
	2.522284	2.506606
	2.522604	2.506606
	2.522284	2.505326
	2.521964	2.502446
	2.520685	2.497646
	2.520365	2.492207
	2.518445	2.486127
	2.518125	2.482287
	2.517165	2.480367
	2.516525	2.477808
	2.516525	2.474928
	2.516205	2.477488
	2.517485	2.481007
	2.521324	2.485167
	2.520365	2.489327
	2.521324	2.492527
	2.522284	2.495406
	2.521964	2.497966
	2.520685	2.498286
	2.520045	2.498286
	2.517485	2.499246
	2.515885	2.494126
	2.513965	2.493487
	2.511725	2.490607
	2.511085	2.490287
	2.509805	2.489967
	2.509485	2.491567
	2.510125	2.490927
	2.511085	2.495086
	2.513325	2.494766
	2.514285	2.506286
	2.514925	2.496686
	2.516205	2.516205
	2.516205	2.497006
	2.516205	2.505006
	2.516525	2.492207
	2.514925	2.508525
	2.514925	2.486447
	2.515245	2.483247
	2.515565	2.482927
	2.514925	2.483567
	2.515885	2.483567
	2.515885	2.484207
	2.522604	2.484527
	2.518765	2.485167
	2.521964	2.485487
	2.519725	2.486767
	2.547883	2.486767
	2.520045	2.485167
	2.519085	2.484207
	2.520685	2.482927
	2.518445	2.482287
	2.519725	2.483567
	2.521324	2.560362
	2.523564	2.484207
	2.524844	2.485807
	2.528044	2.488367
	2.530604	2.490287
	2.532844	2.490287
	2.535083	2.493806
	2.537963	2.490607
	2.538923	2.490927
	2.538603	2.487087
	2.537323	2.488367
	2.536683	2.486447
	2.533804	2.497326
	2.533164	2.487087
	2.531564	2.508525
	2.531244	2.490927
	2.529644	2.550442
	2.531244	2.497006
	2.530284	2.602919
	2.539883	2.499566
	2.529004	2.501486
	2.529964	2.499886
	2.528684	2.501166
	2.527404	2.509165
	2.525164	2.496686
	2.522604	2.548203
	2.521005	2.490607
	2.516845	2.492207
	2.514925	2.485807
	2.513965	2.488047
	2.514925	2.584360
	2.514605	2.490607
	2.516525	2.531884
	2.519405	2.491887
	2.521005	2.545003
	2.522604	2.495406
	2.523884	2.562601
	2.524524	2.490927
	2.526444	2.489327
	2.522284	2.488367
	2.555242	2.498926
	2.518445	2.484847
	2.518125	2.480367
	2.516845	2.477488
	2.516845	2.481007
	2.517805	2.488367
	2.519085	2.476208
	2.519405	2.484847
	2.521964	2.476208
	2.522604	2.478768
	2.522924	2.473648
	2.523564	2.473968
	2.522604	2.468848
	2.521964	2.466608
	2.518125	2.460529
	2.514925	2.462769
	2.516845	2.460529
	2.514925	2.459249
	2.514925	2.464049
	2.514925	2.464369
	2.514925	2.470448
	2.516205	2.470768
	2.515245	2.478448
	2.517485	2.476848
	2.517805	2.479408
	2.517485	2.481007
	2.517485	2.478128
	2.514605	2.476528
	2.520685	2.473328
	2.514285	2.472368
	2.514925	2.470768
	2.516845	2.470448
	2.519405	2.469488
	2.520365	2.471408
	2.523244	2.471408
	2.527404	2.474608
	2.529644	2.477168
	2.533164	2.478448
	2.533804	2.480047
	2.537323	2.481967
	2.534764	2.484847
	2.536043	2.486447
	2.535723	2.489647
	2.534124	2.490607
	2.532844	2.496366
	2.534124	2.495726
	2.535083	2.520045
	2.538923	2.529324
	2.540203	2.565481
	2.542763	2.526444
	2.552042	2.539243
	2.549482	2.519405
	2.553002	2.557802
	2.553962	2.522284
	2.556522	2.516205
	2.556842	2.562282
	2.555882	2.522604
	2.554922	2.512365
	2.554282	2.510445
	2.551722	2.512045
	2.547563	2.508525
	2.551722	2.507885
	2.539883	2.507565
	2.535403	2.520045
	2.530924	2.496686
	2.526444	2.503726
	2.522604	2.497966
	2.519725	2.499886
	2.514925	2.503406
	2.510765	2.507565
	2.508845	2.516845
	2.506286	2.512365
	2.502126	2.517485
	2.503726	2.520685
	2.503406	2.528364
	2.504366	2.528044
	2.505646	2.533164
	2.506606	2.533484
	2.508525	2.527724
	2.512365	2.526764
	2.514605	2.523884
	2.518445	2.523244
	2.519085	2.518445
	2.523884	2.518125
	2.526444	2.516845
	2.529964	2.513645
	2.529644	2.512365
	2.533164	2.511085
	2.538283	2.511405
	2.540843	2.508845
	2.543403	2.508845
	2.547563	2.506286
	2.551722	2.539563
	2.554922	2.497646
	2.559722	2.491887
	2.561962	2.487407
	2.564841	2.482607
	2.569321	2.478768
	2.569641	2.475568
	2.574761	2.505326
	2.569001	2.472048
	2.569641	2.473008
	2.567081	2.475568
	2.564841	2.478768
	2.562601	2.481967
	2.559722	2.483567
	2.599719	2.520045
	2.554602	2.486127
	2.552362	2.486447
	2.548842	2.483567
	2.544683	2.480687
	2.541803	2.478768
	2.539563	2.476528
	2.543083	2.509805
	2.530924	2.476528
	2.528684	2.478448
	2.525164	2.481647
	2.522604	2.486767
	2.518765	2.494126
	2.517165	2.499246
	2.520045	2.526444
	2.516205	2.510125
	2.517805	2.512685
	2.518765	2.513645
	2.518765	2.512365
	2.518765	2.510445
	2.520365	2.505646
	2.523564	2.502446
	2.524844	2.495726
	2.524524	2.490927
	2.528044	2.486767
	2.531564	2.484527
	2.534124	2.482287
	2.536363	2.481967
	2.536683	2.487407
	2.537963	2.485167
	2.537963	2.487407
	2.536043	2.489327
	2.533484	2.490927
	2.531884	2.491567
	2.529004	2.491887
	2.528044	2.490927
	2.524844	2.489007
	2.524204	2.487727
	2.525484	2.485807
	2.528044	2.485807
	2.532844	2.486447
	2.537963	2.486127
	2.551402	2.486767
	2.546923	2.488367
	2.550122	2.493167
	2.553322	2.491887
	2.553962	2.493487
	2.553002	2.494126
	2.552682	2.494126
	2.594279	2.492847
	2.549482	2.491567
	2.547563	2.489327
	2.545963	2.485807
	2.542763	2.486127
	2.550122	2.487087
	2.545643	2.487727
	2.560362	2.489647
	2.566121	2.493487
	2.554922	2.497646
	2.561962	2.501166
	2.576680	2.505966
	2.572521	2.509165
	2.574121	2.512045
	2.575081	2.513645
	2.542443	2.514605
	2.545323	2.512045
	2.528364	2.509485
	2.528684	2.505966
	2.539243	2.505326
	2.525804	2.502766
	2.532204	2.500206
	2.526764	2.500206
	2.529004	2.500206
	2.531244	2.498926
	2.525164	2.500526
	2.524204	2.501486
	2.517485	2.499886
	2.516205	2.499246
	2.512685	2.498606
	2.506926	2.495726
	2.504046	2.494126
	2.501486	2.492207
	2.504366	2.488047
	2.503406	2.484847
	2.506286	2.482927
	2.510445	2.485807
	2.511725	2.481647
	2.517165	2.482607
	2.518445	2.484527
	2.522924	2.485487
	2.523244	2.487727
	2.524524	2.491887
	2.525484	2.493806
	2.526124	2.494446
	2.529324	2.495726
	2.532204	2.494126
	2.533804	2.494446
	2.538923	2.493167
	2.541163	2.490607
	2.543083	2.488687
	2.543083	2.486127
	2.545643	2.484847
	2.545003	2.483887
	2.541803	2.485487
	2.539243	2.486127
	2.536043	2.488687
	2.531244	2.488367
	2.525484	2.492847
	2.521964	2.495086
	2.519725	2.496046
	2.518125	2.496366
	2.515885	2.494766
	2.519725	2.491567
	2.521324	2.486767
	2.523564	2.480687
	2.544043	2.474608
	2.537643	2.468848
	2.538923	2.464369
	2.548203	2.460209
	2.547243	2.457329
	2.575081	2.456369
	2.559722	2.457009
	2.574761	2.457649
	2.587880	2.459569
	2.598439	2.463729
	2.617318	2.466608
	2.621797	2.468848
	2.628197	2.470448
	2.631716	2.471408
	2.631716	2.473328
	2.628197	2.473328
	2.618917	2.473008
	2.609318	2.473008
	2.599079	2.473648
	2.586920	2.474928
	2.573801	2.477488
	2.559402	2.478448
	2.547243	2.480047
	2.539883	2.481647
	2.533164	2.483567
	2.527084	2.485167
	2.520685	2.487087
	2.517165	2.485807
	2.517485	2.486767
	2.515885	2.483887
	2.515565	2.481647
	2.514285	2.479408
	2.513645	2.477488
	2.517805	2.473968
	2.511725	2.471728
	2.512365	2.468528
	2.513325	2.468208
	2.513965	2.466928
	2.517165	2.468208
	2.521644	2.467248
	2.527404	2.467568
	2.533484	2.468848
	2.537643	2.470128
	2.542763	2.471408
	2.547883	2.473328
	2.552042	2.475568
	2.549482	2.476528
	2.556522	2.479408
	2.556842	2.481647
	2.554922	2.483247
	2.555562	2.486767
	2.551082	2.530284
	2.548523	2.493806
	2.547243	2.498286
	2.545323	2.501166
	2.540523	2.504366
	2.539563	2.507885
	2.537643	2.508525
	2.535403	2.510445
	2.535083	2.512685
	2.535403	2.513005
	2.536683	2.512365
	2.539563	2.515885
	2.540523	2.516525
	2.544043	2.516845
	2.545323	2.517485
	2.547883	2.518445
	2.559402	2.517485
	2.546603	2.516525
	2.546923	2.516205
	2.544363	2.513005
	2.542763	2.509165
	2.541483	2.508205
	2.539243	2.505006
	2.537963	2.505326
	2.539243	2.506606
	2.539243	2.509485
	2.545003	2.515565
	2.548523	2.520685
	2.553642	2.526444
	2.558122	2.532844
	2.561962	2.539243
	2.567721	2.544043
	2.571561	2.549162
	2.573161	2.551402
	2.578920	2.552682
	2.580840	2.553642
	2.584680	2.553322
	2.589160	2.552682
	2.593639	2.551082
	2.596199	2.550762
	2.598119	2.549162
	2.599399	2.547243
	2.600039	2.544683
	2.596519	2.541163
	2.591719	2.537963
	2.589160	2.532844
	2.579880	2.527724
	2.572521	2.521324
	2.563561	2.514605
	2.555242	2.509165
	2.550762	2.505966
	2.555242	2.502446
	2.537323	2.499886
	2.533164	2.500526
	2.532524	2.501166
	2.530924	2.504046
	2.532844	2.505966
	2.536683	2.509165
	2.542443	2.511725
	2.545323	2.514285
	2.552682	2.516205
	2.560682	2.515885
	2.567721	2.515245
	2.572201	2.513965
	2.574761	2.512045
	2.577000	2.509165
	2.576041	2.508525
	2.572521	2.507246
	2.568681	2.505646
	2.568041	2.505966
	2.558442	2.505646
	2.552042	2.505326
	2.545963	2.504046
	2.539883	2.502766
	2.536043	2.505326
	2.531564	2.503726
	2.528684	2.504366
	2.527084	2.504686
	2.528044	2.504686
	2.530924	2.503726
	2.536683	2.503086
	2.545643	2.503406
	2.557802	2.500846
	2.568681	2.497966
	2.585320	2.497006
	2.602919	2.493806
	2.624357	2.489007
	2.641956	2.486767
	2.652515	2.483567
	2.670114	2.479408
	2.683553	2.477168
	2.691552	2.474608
	2.700831	2.471728
	2.704031	2.469488
	2.709151	2.469168
	2.711071	2.465968
	2.711391	2.466288
	2.712031	2.465968
	2.711071	2.465968
	2.709471	2.466928
	2.710111	2.469168
	2.704351	2.472048
	2.702751	2.475248
	2.696032	2.482927
	2.687712	2.493167
	2.678753	2.500206
	2.667554	2.512045
	2.668834	2.525164
	2.644836	2.537323
	2.633636	2.549482
	2.621477	2.559402
	2.608998	2.566761
	2.602599	2.572521
	2.589800	2.575081
	2.582120	2.573481
	2.574121	2.569641
	2.566441	2.563561
	2.562282	2.556202
	2.557482	2.545323
	2.552682	2.537003
	2.551402	2.528044
	2.549802	2.519725
	2.549162	2.514605
	2.550442	2.510125
	2.551082	2.507246
	2.552362	2.505646
	2.555562	2.505966
	2.556522	2.506926
	2.557482	2.508205
	2.559402	2.507246
	2.556842	2.505646
	2.555562	2.504046
	2.553322	2.502126
	2.547883	2.500206
	2.543083	2.499886
	2.540203	2.500846
	2.537963	2.505006
	2.537003	2.511405
	2.538923	2.519725
	2.543403	2.532844
	2.551402	2.541803
	2.555882	2.552042
	2.563241	2.569961
	2.569961	2.565481
	2.574121	2.567721
	2.576041	2.567721
	2.576041	2.559722
	2.573481	2.552042
	2.568681	2.540523
	2.563881	2.529004
	2.560362	2.516845
	2.554602	2.506926
	2.550762	2.495726
	2.549162	2.488047
	2.548203	2.502766
	2.548203	2.477808
	2.552042	2.473328
	2.555242	2.470768
	2.559722	2.465649
	2.565481	2.462129
	2.568361	2.470768
	2.573161	2.449330
	2.577960	2.441330
	2.580840	2.439090
	2.585960	2.428211
	2.589480	2.423092
	2.592679	2.570921
	2.597479	2.416692
	2.601319	2.418932
	2.602599	2.422452
	2.601959	2.426291
	2.601639	2.432691
	2.596839	2.576041
	2.591079	2.444210
	2.586600	2.448690
	2.581480	2.453169
	2.570281	2.454769
	2.564201	2.456369
	2.556842	2.455089
	2.553322	2.454769
	2.553002	2.453489
	2.550442	2.450930
	2.551402	2.449330
	2.556522	2.448050
	2.557802	2.449010
	2.562921	2.447410
	2.570281	2.449010
	2.576360	2.449010
	2.583400	2.451250
	2.589800	2.452209
	2.598119	2.454129
	2.608998	2.454769
	2.622437	2.455729
	2.634916	2.457329
	2.645475	2.458289
	2.660514	2.459889
	2.678753	2.461169
	2.693792	2.462129
	2.705951	2.465649
	2.720670	2.467248
	2.733789	2.479408
	2.748188	2.472688
	2.757467	2.475248
	2.763227	2.477168
	2.768987	2.479728
	2.771866	2.480047
	2.771226	2.481327
	2.768987	2.480367
	2.765147	2.480367
	2.756187	2.479408
	2.744668	2.477808
	2.729949	2.478128
	2.713631	2.478768
	2.700831	2.479728
	2.680993	2.481327
	2.663074	2.483887
	2.644516	2.488687
	2.626917	2.492847
	2.614758	2.497006
	2.600039	2.537323
	2.587560	2.509165
	2.575721	2.513965
	2.568681	2.518765
	2.559082	2.521964
	2.552362	2.525484
	2.545003	2.526444
	2.537323	2.528044
	2.534444	2.529004
	2.526444	2.530924
	2.517805	2.531884
	2.515245	2.533164
	2.508845	2.535083
	2.505646	2.566121
	2.500206	2.537003
	2.496686	2.538603
	2.495086	2.541803
	2.494766	2.544043
	2.494446	2.546283
	2.497006	2.545963
	2.498606	2.548523
	2.499886	2.547563
	2.503086	2.546923
	2.504366	2.547563
	2.504686	2.543403
	2.503086	2.538923
	2.503406	2.535083
	2.501486	2.529964
	2.500526	2.525164
	2.498606	2.519405
	2.497326	2.511725
	2.497966	2.509165
	2.498606	2.504686
	2.501486	2.501166
	2.505966	2.497646
	2.510765	2.493806
	2.515565	2.495726
	2.518125	2.490287
	2.521964	2.489967
	2.524204	2.487727
	2.525164	2.487087
	2.524524	2.487407
	2.523244	2.488687
	2.522604	2.490607
	2.520045	2.493806
	2.515885	2.498286
	2.513645	2.505006
	2.512685	2.512045
	2.511405	2.518125
	2.510765	2.525164
	2.511725	2.530924
	2.514285	2.534124
	2.516205	2.536683
	2.519085	2.540203
	2.522924	2.536683
	2.525164	2.534444
	2.527404	2.531244
	2.531884	2.527084
	2.534764	2.523564
	2.537963	2.519725
	2.543403	2.516205
	2.548523	2.513005
	2.555562	2.510445
	2.563241	2.541163
	2.573801	2.506926
	2.581800	2.504686
	2.587880	2.503726
	2.597799	2.502766
	2.604518	2.500846
	2.609318	2.497966
	2.613158	2.559402
	2.616038	2.491887
	2.617318	2.488047
	2.618917	2.485807
	2.629797	2.482927
	2.619237	2.480367
	2.617638	2.478768
	2.616678	2.482607
	2.614758	2.478128
	2.610598	2.479088
	2.608678	2.479408
	2.604518	2.479728
	2.596519	2.480047
	2.586600	2.480367
	2.575721	2.491887
	2.569001	2.474928
	2.558122	2.471408
	2.547243	2.466928
	2.534764	2.463089
	2.525804	2.458929
	2.519405	2.453169
	2.510765	2.457009
	2.504686	2.444850
	2.500526	2.440370
	2.497006	2.435891
	2.497326	2.432051
	2.496686	2.428851
	2.497326	2.425331
	2.499886	2.448050
	2.502446	2.420532
	2.505326	2.417332
	2.508525	2.416372
	2.511725	2.414132
	2.516845	2.412532
	2.520045	2.412212
	2.524524	2.476848
	2.530284	2.412852
	2.534764	2.413172
	2.540523	2.413812
	2.543723	2.417012
	2.548842	2.418612
	2.554282	2.424691
	2.556842	2.429491
	2.562282	2.435891
	2.564201	2.442290
	2.566441	2.448690
	2.566761	2.459569
	2.567081	2.463089
	2.565481	2.469808
	2.565801	2.474288
	2.562601	2.479408
	2.561642	2.483247
	2.560042	2.487087
	2.557482	2.490927
	2.561002	2.494126
	2.556202	2.500526
	2.554602	2.505326
	2.554282	2.510765
	2.552362	2.522924
	2.550762	2.531244
	2.549482	2.540523
	2.549162	2.549802
	2.546603	2.556202
	2.547563	2.561962
	2.547883	2.564841
	2.556202	2.566441
	2.551722	2.568361
	2.554602	2.566761
	2.557482	2.585640
	2.561322	2.560362
	2.565801	2.556202
	2.570601	2.553962
	2.575721	2.555562
	2.577960	2.551082
	2.581800	2.549802
	2.581800	2.549162
	2.583720	2.548842
	2.583400	2.547883
	2.581480	2.547563
	2.581480	2.547243
	2.581160	2.546923
	2.580520	2.545643
	2.581160	2.546923
	2.581160	2.546603
	2.581800	2.544683
	2.582440	2.541483
	2.582120	2.538603
	2.582440	2.612838
	2.580840	2.529964
	2.580520	2.524204
	2.578280	2.518125
	2.576041	2.535403
	2.575081	2.506286
	2.574441	2.503406
	2.572201	2.498606
	2.571881	2.494446
	2.571561	2.490607
	2.571561	2.488367
	2.571881	2.486767
	2.569641	2.489647
	2.569321	2.485487
	2.569961	2.482607
	2.569641	2.480367
	2.573161	2.477168
	2.574441	2.474608
	2.576360	2.471088
	2.578920	2.468528
	2.580840	2.466288
	2.582440	2.464049
	2.585960	2.464049
	2.589160	2.463409
	2.590119	2.463409
	2.589480	2.465009
	2.589160	2.467248
	2.587560	2.621797
	2.585000	2.471728
	2.583080	2.474928
	2.577000	2.475888
	2.571241	2.476528
	2.609958	2.478128
	2.559722	2.479088
	2.554282	2.479088
	2.548203	2.529644
	2.544363	2.480687
	2.539563	2.481967
	2.535403	2.483567
	2.534764	2.524204
	2.535403	2.490287
	2.529964	2.495086
	2.529324	2.498926
	2.529324	2.631077
	2.528044	2.505646
	2.527084	2.508845
	2.524844	2.509805
	2.523884	2.659554
	2.522604	2.512365
	2.520685	2.512685
	2.517805	2.513325
	2.512685	2.538603
	2.507565	2.515885
	2.503726	2.519085
	2.498606	2.522924
	2.493167	2.525164
	2.487727	2.529004
	2.485167	2.529324
	2.483247	2.529324
	2.481647	2.531884
	2.480047	2.531244
	2.481967	2.528684
	2.482607	2.524204
	2.483887	2.545003
	2.486447	2.529644
	2.487087	2.522284
	2.488367	2.622437
	2.490607	2.579560
	2.491887	2.518125
	2.492847	2.504046
	2.493487	2.620197
	2.495086	2.528684
	2.495726	2.519725
	2.496686	2.494126
	2.498606	2.501806
	2.500846	2.507885
	2.502766	2.502126
	2.504366	2.493806
	2.506286	2.488047
	2.508525	2.492527
	2.510445	2.488687
	2.511725	2.483887
	2.513325	2.477488
	2.515245	2.486447
	2.517165	2.473328
	2.519085	2.470768
	2.520365	2.467568
	2.523884	2.474288
	2.528044	2.474608
	2.532204	2.541163
	2.537963	2.465329
	2.542443	2.473008
	2.546923	2.468208
	2.550122	2.472048
	2.554282	2.468208
	2.556842	2.470128
	2.558122	2.476528
	2.561642	2.477488
	2.562282	2.478448
	2.565161	2.479088
	2.569001	2.483567
	2.571241	2.485487
	2.576041	2.504686
	2.583400	2.484527
	2.590439	2.484527
	2.598439	2.481327
	2.603239	2.478128
	2.612198	2.475248
	2.622117	2.470128
	2.629157	2.468848
	2.635556	2.464369
	2.641316	2.467248
	2.646755	2.461489
	2.650595	2.462769
	2.652835	2.464049
	2.650915	2.463729
	2.659554	2.464369
	2.641636	2.465968
	2.632036	2.466288
	2.621157	2.466288
	2.613158	2.466928
	2.600999	2.463409
	2.588200	2.463729
	2.575721	2.463409
	2.563561	2.464369
	2.577960	2.465649
	2.548203	2.468848
	2.538283	2.477168
	2.532844	2.485807
	2.527084	2.494446
	2.523244	2.504366
	2.520045	2.512685
	2.515245	2.521644
	2.513005	2.526764
	2.519405	2.532524
	2.507246	2.531244
	2.505326	2.529964
	2.503726	2.526764
	2.502446	2.521644
	2.501166	2.513645
	2.499566	2.508525
	2.499566	2.504046
	2.497966	2.502126
	2.495726	2.502446
	2.495406	2.502446
	2.493806	2.505646
	2.492207	2.509165
	2.489647	2.512685
	2.494126	2.566761
	2.488047	2.520045
	2.486127	2.521005
	2.485807	2.519725
	2.486447	2.516205
	2.487407	2.512045
	2.486767	2.512365
	2.487407	2.498926
	2.489647	2.493806
	2.492207	2.490607
	2.493806	2.486447
	2.495726	2.487407
	2.498286	2.489327
	2.502126	2.491887
	2.506926	2.497006
	2.508845	2.501486
	2.512045	2.505326
	2.515885	2.508525
	2.518445	2.511405
	2.567401	2.508525
	2.523884	2.509805
	2.530924	2.509165
	2.535723	2.507565
	2.540203	2.505646
	2.545323	2.506286
	2.546923	2.505966
	2.552362	2.508525
	2.556202	2.510125
	2.559082	2.513965
	2.561322	2.516845
	2.562282	2.519085
	2.563241	2.518125
	2.563561	2.518765
	2.565481	2.517165
	2.565481	2.517485
	2.566121	2.508845
	2.567401	2.504686
	2.566761	2.500206
	2.569001	2.496686
	2.568681	2.499886
	2.569001	2.503086
	2.569001	2.498286
	2.567721	2.502126
	2.567081	2.505646
	2.566121	2.514605
	2.564841	2.517805
	2.563881	2.518445
	2.562921	2.520045
	2.563881	2.518765
	2.563881	2.518445
	2.564201	2.510445
	2.565481	2.504366
	2.564841	2.499566
	2.565801	2.495086
	2.564521	2.492527
	2.564201	2.501486
	2.561642	2.490287
	2.559082	2.492207
	2.556522	2.494126
	2.553002	2.497006
	2.549162	2.498606
	2.545003	2.500846
	2.540203	2.501166
	2.537003	2.501806
	2.534124	2.499566
	2.527404	2.498606
	2.522284	2.498926
	2.517165	2.496686
	2.514925	2.497006
	2.511085	2.497966
	2.505966	2.497966
	2.501166	2.498606
	2.500206	2.499566
	2.497966	2.500846
	2.499886	2.499566
	2.500846	2.501166
	2.505006	2.499886
	2.510125	2.497006
	2.516525	2.494126
	2.560362	2.490607
	2.532204	2.484847
	2.541483	2.480687
	2.547243	2.475248
	2.553962	2.470448
	2.561642	2.466928
	2.567721	2.464049
	2.569001	2.461809
	2.568361	2.462769
	2.575081	2.463089
	2.567721	2.465009
	2.575401	2.469808
	2.561642	2.472688
	2.564521	2.479088
	2.566441	2.484847
	2.567721	2.491247
	2.543723	2.496686
	2.538283	2.501486
	2.528364	2.506926
	2.526124	2.510765
	2.525164	2.514925
	2.517805	2.516525
	2.515565	2.518445
	2.508525	2.521005
	2.512365	2.519725
	2.514605	2.519725
	2.511725	2.519725
	2.514925	2.517165
	2.518125	2.514605
	2.528044	2.510765
	2.538923	2.507246
	2.551082	2.503406
	2.559082	2.499246
	2.569321	2.494126
	2.581800	2.488047
	2.598439	2.483247
	2.602279	2.477808
	2.609958	2.472368
	2.615398	2.468208
	2.633956	2.464369
	2.629157	2.460849
	2.635876	2.459249
	2.639716	2.456689
	2.645156	2.457009
	2.650275	2.457649
	2.655075	2.459249
	2.658915	2.460849
	2.661794	2.464689
	2.662114	2.466928
	2.661154	2.472688
	2.655395	2.476528
	2.648995	2.481327
	2.641316	2.487087
	2.631716	2.491887
	2.618917	2.496366
	2.602919	2.502766
	2.594279	2.506286
	2.593959	2.508845
	2.562921	2.510765
	2.548842	2.511725
	2.535723	2.511405
	2.527724	2.510445
	2.518125	2.508845
	2.511405	2.506606
	2.504366	2.504366
	2.501166	2.502766
	2.500206	2.500526
	2.501166	2.500206
	2.503406	2.498926
	2.507246	2.498606
	2.510765	2.498926
	2.514285	2.498606
	2.519725	2.498606
	2.523884	2.496366
	2.529004	2.494126
	2.529004	2.490607
	2.531244	2.496366
	2.530284	2.482927
	2.532524	2.477488
	2.531244	2.472048
	2.528684	2.467568
	2.529004	2.463729
	2.529644	2.459889
	2.529644	2.457649
	2.531884	2.457009
	2.532524	2.458929
	2.536043	2.461169
	2.539563	2.464369
	2.543083	2.467888
	2.545643	2.470768
	2.546603	2.473968
	2.547883	2.476528
	2.545003	2.479408
	2.544043	2.480367
	2.539563	2.484527
	2.536683	2.488367
	2.531884	2.494766
	2.527404	2.504686
	2.522924	2.520045
	2.517805	2.537003
	2.516525	2.557802
	2.516205	2.580200
	2.516205	2.602919
	2.519405	2.624037
	2.522604	2.642596
	2.528684	2.654755
	2.537963	2.662754
	2.546603	2.670754
	2.555882	2.665314
	2.560682	2.660834
	2.569321	2.654435
	2.576360	2.647715
	2.579240	2.640676
	2.582440	2.635556
	2.582120	2.645795
	2.580200	2.624357
	2.578280	2.618917
	2.574761	2.612198
	2.573161	2.606118
	2.571241	2.595559
	2.569961	2.585000
	2.569961	2.571881
	2.570601	2.557802
	2.573801	2.543403
	2.578600	2.529644
	2.584680	2.518765
	2.591399	2.508845
	2.599399	2.498606
	2.604518	2.489007
	2.612198	2.480367
	2.619877	2.473008
	2.626597	2.465329
	2.632676	2.457649
	2.634276	2.451250
	2.640356	2.443890
	2.642596	2.434931
	2.645795	2.427571
	2.645475	2.420852
	2.643556	2.415092
	2.640676	2.410613
	2.635236	2.409333
	2.629477	2.410613
	2.620837	2.410293
	2.615078	2.413812
	2.606118	2.418932
	2.596519	2.423412
	2.589480	2.428851
	2.586600	2.436531
	2.578600	2.444210
	2.573801	2.450930
	2.569641	2.458289
	2.566761	2.463729
	2.565161	2.468848
	2.561002	2.471088
	2.573801	2.474608
	2.552042	2.476528
	2.545643	2.478448
	2.540203	2.481647
	2.532524	2.485167
	2.524524	2.489007
	2.515885	2.494766
	2.508205	2.500526
	2.504686	2.513005
	2.498926	2.513325
	2.495086	2.520045
	2.492527	2.525484
	2.489327	2.530604
	2.487407	2.531884
	2.485487	2.534444
	2.483887	2.535403
	2.480367	2.535083
	2.478768	2.535403
	2.474288	2.535723
	2.469168	2.536363
	2.464369	2.537963
	2.461169	2.538923
	2.459249	2.540203
	2.458289	2.539883
	2.457649	2.538923
	2.460849	2.535723
	2.465329	2.530284
	2.469488	2.522924
	2.475888	2.515885
	2.482927	2.505966
	2.490927	2.495726
	2.500526	2.488047
	2.504686	2.478768
	2.510125	2.469808
	2.517485	2.462129
	2.522284	2.456689
	2.528364	2.454129
	2.530284	2.452209
	2.536683	2.452209
	2.543083	2.466608
	2.551722	2.455729
	2.558122	2.457649
	2.565801	2.458929
	2.574441	2.460849
	2.581160	2.461809
	2.586600	2.464369
	2.588200	2.465329
	2.590759	2.479728
	2.592359	2.471728
	2.590759	2.472368
	2.590119	2.476208
	2.588200	2.482287
	2.585960	2.486127
	2.584360	2.490927
	2.582760	2.495086
	2.582440	2.504366
	2.583080	2.502126
	2.582760	2.505646
	2.580840	2.507246
	2.578920	2.510445
	2.575721	2.512045
	2.572521	2.513005
	2.565161	2.515245
	2.557482	2.518125
	2.546923	2.520365
	2.541163	2.526124
	2.528044	2.529324
	2.516525	2.533804
	2.508205	2.537963
	2.499246	2.544683
	2.494446	2.550762
	2.490287	2.555882
	2.488367	2.567401
	2.487727	2.566121
	2.489007	2.570281
	2.491887	2.572521
	2.491887	2.573481
	2.496046	2.572841
	2.500526	2.569961
	2.503406	2.566121
	2.504686	2.561642
	2.507885	2.555562
	2.509805	2.549162
	2.511405	2.543403
	2.513965	2.537003
	2.513965	2.532204
	2.515565	2.529004
	2.517485	2.527084
	2.519725	2.524524
	2.520045	2.522604
	2.524524	2.521005
	2.526764	2.519405
	2.527724	2.517165
	2.529644	2.516205
	2.530924	2.512685
	2.532844	2.508845
	2.534764	2.505326
	2.535403	2.502766
	2.537003	2.590759
	2.538283	2.495406
	2.540843	2.495086
	2.543403	2.493167
	2.546283	2.492527
	2.551402	2.491887
	2.553002	2.491247
	2.556842	2.490927
	2.559722	2.489007
	2.561642	2.487087
	2.565161	2.483887
	2.565801	2.479728
	2.566441	2.475888
	2.568681	2.471728
	2.570281	2.467248
	2.571881	2.463089
	2.575081	2.460849
	2.582760	2.457969
	2.589800	2.457649
	2.597479	2.456369
	2.601639	2.456689
	2.611878	2.455409
	2.616358	2.455729
	2.620837	2.453169
	2.623397	2.452529
	2.623077	2.449330
	2.621797	2.445170
	2.619237	2.442290
	2.614438	2.438770
	2.607078	2.436211
	2.603559	2.434291
	2.597159	2.433651
	2.590759	2.435891
	2.585640	2.437171
	2.580200	2.441330
	2.575721	2.447090
	2.571881	2.453169
	2.567081	2.458609
	2.563241	2.463729
	2.559722	2.467568
	2.556842	2.470448
	2.550762	2.472048
	2.546603	2.469808
	2.544683	2.468208
	2.543083	2.464049
	2.541163	2.462129
	2.541483	2.457329
	2.542123	2.455729
	2.547243	2.456689
	2.550122	2.461809
	2.554922	2.466928
	2.559722	2.479728
	2.564201	2.493806
	2.568361	2.510445
	2.573481	2.527724
	2.569641	2.543403
	2.567721	2.555882
	2.562601	2.565481
	2.558762	2.570601
	2.550122	2.572841
	2.541163	2.572521
	2.532524	2.569961
	2.524524	2.567401
	2.521324	2.568041
	2.515245	2.569321
	2.512365	2.577000
	2.512045	2.585960
	2.513005	2.598439
	2.514925	2.612838
	2.519405	2.627557
	2.524844	2.638756
	2.532524	2.648035
	2.538923	2.648675
	2.543403	2.645156
	2.550122	2.636196
	2.555882	2.623077
	2.561642	2.604838
	2.564841	2.586920
	2.567081	2.566121
	2.571881	2.549162
	2.573801	2.534764
	2.577000	2.523884
	2.579240	2.515885
	2.581480	2.512685
	2.587560	2.510765
	2.593959	2.511085
	2.601959	2.510445
	2.608358	2.508525
	2.617957	2.506286
	2.626917	2.499246
	2.634916	2.500526
	2.637476	2.482607
	2.638116	2.472048
	2.636836	2.461809
	2.630437	2.453489
	2.619877	2.446450
	2.607398	2.442610
	2.598759	2.441330
	2.585960	2.450290
	2.573801	2.447410
	2.563881	2.451890
	2.555242	2.457329
	2.550442	2.463089
	2.543403	2.466928
	2.538283	2.469808
	2.533164	2.471728
	2.527724	2.473648
	2.522284	2.475568
	2.514925	2.474608
	2.505966	2.476208
	2.495406	2.477488
	2.488367	2.479088
	2.479088	2.483247
	2.470128	2.486127
	2.461489	2.490287
	2.456689	2.496366
	2.455729	2.500526
	2.454129	2.505646
	2.454129	2.509165
	2.456369	2.512365
	2.460209	2.514925
	2.460849	2.516525
	2.465009	2.517165
	2.468208	2.515885
	2.471408	2.516845
	2.474928	2.514285
	2.477808	2.513005
	2.481327	2.511405
	2.485807	2.508845
	2.491567	2.506606
	2.494126	2.504046
	2.500526	2.499886
	2.506926	2.497646
	2.516205	2.508205
	2.523564	2.491887
	2.529964	2.487407
	2.538923	2.484847
	2.547563	2.482287
	2.556842	2.480047
	2.563561	2.477808
	2.568681	2.476528
	2.574121	2.474928
	2.580200	2.474288
	2.585640	2.472048
	2.589800	2.470448
	2.593639	2.468848
	2.597479	2.465968
	2.602599	2.463729
	2.606438	2.459889
	2.611238	2.458929
	2.614118	2.458289
	2.618917	2.456049
	2.623077	2.453809
	2.625957	2.453489
	2.627237	2.453489
	2.627237	2.453169
	2.625957	2.454449
	2.623077	2.456369
	2.618597	2.458609
	2.615398	2.458929
	2.608358	2.460209
	2.599719	2.462769
	2.590119	2.464369
	2.581480	2.465649
	2.574761	2.467888
	2.565481	2.470448
	2.559402	2.472688
	2.554282	2.474608
	2.550442	2.478128
	2.549162	2.481007
	2.547563	2.485487
	2.547563	2.490287
	2.543723	2.497966
	2.542763	2.503726
	2.541483	2.511085
	2.540203	2.518125
	2.537323	2.523564
	2.535403	2.528364
	2.533804	2.532204
	2.536043	2.534124
	2.535723	2.534124
	2.539563	2.532844
	2.547563	2.529964
	2.551082	2.527084
	2.558762	2.525484
	2.566121	2.523244
	2.572841	2.523244
	2.579560	2.524204
	2.583400	2.527724
	2.586280	2.532844
	2.590759	2.538283
	2.595559	2.545003
	2.599719	2.550122
	2.603239	2.554922
	2.607718	2.557162
	2.615718	2.557802
	2.621477	2.557482
	2.627557	2.554282
	2.631397	2.549482
	2.636196	2.543723
	2.638756	2.537003
	2.638116	2.531884
	2.636836	2.525804
	2.633956	2.520685
	2.626917	2.517165
	2.616998	2.514925
	2.608038	2.512045
	2.599399	2.510125
	2.586600	2.509165
	2.575401	2.507565
	2.564201	2.505006
	2.553962	2.502446
	2.548203	2.498926
	2.539883	2.496686
	2.535403	2.494446
	2.529964	2.492847
	2.528364	2.490607
	2.528684	2.487727
	2.530284	2.486127
	2.533804	2.484207
	2.536683	2.480687
	2.541803	2.477808
	2.545003	2.484527
	2.548203	2.468848
	2.554282	2.474928
	2.556202	2.457009
	2.558122	2.451570
	2.559722	2.446770
	2.559722	2.442930
	2.560362	2.440050
	2.561002	2.439090
	2.561642	2.442610
	2.563561	2.442290
	2.564841	2.445170
	2.569641	2.448690
	2.572841	2.454129
	2.577000	2.458609
	2.581480	2.461809
	2.586600	2.465968
	2.594599	2.468528
	2.603878	2.469808
	2.610598	2.468848
	2.620197	2.467888
	2.634276	2.465329
	2.648675	2.464369
	2.658595	2.460529
	2.671074	2.459889
	2.685473	2.459249
	2.694752	2.661154
	2.702431	2.465329
	2.707231	2.504046
	2.709151	2.565481
	2.705631	2.604838
	2.700511	2.751388
	2.694432	2.696032
	2.687392	2.806104
	2.680353	2.763227
	2.671714	2.614118
	2.667234	2.630437
	2.662434	2.579560
	2.661474	2.666594
	2.661794	2.608038
	2.661794	2.692512
	2.661794	2.617957
	2.660514	2.651555
	2.658595	2.605158
	2.652835	2.572201
	2.644836	2.570601
	2.634596	2.551082
	2.622437	2.565801
	2.612198	2.542763
	2.598759	2.560682
	2.585640	2.537963
	2.573481	2.548203
	2.565481	2.531884
	2.559082	2.517805
	2.554602	2.520685
	2.552362	2.521644
	2.549802	2.540523
	2.548842	2.539883
	2.546923	2.557802
	2.545003	2.553642
	2.540843	2.561642
	2.535403	2.556522
	2.531244	2.545323
	2.523884	2.540203
	2.515565	2.535403
	2.507885	2.533804
	2.500846	2.524204
	2.495086	2.527084
	2.489967	2.521324
	2.485487	2.526444
	2.482607	2.526764
	2.479408	2.530604
	2.477168	2.542763
	2.474288	2.551082
	2.474928	2.563881
	2.475248	2.570281
	2.476208	2.580200
	2.478768	2.576680
	2.484207	2.577320
	2.490607	2.571241
	2.501166	2.562921
	2.508845	2.554602
	2.521324	2.548203
	2.535723	2.562282
	2.545643	2.557802
	2.558122	2.587880
	2.564841	2.590119
	2.569641	2.607398
	2.574441	2.681953
	2.576041	2.556842
	2.575401	2.556842
	2.572521	2.562921
	2.568681	2.598119
	2.564521	2.577640
	2.560682	2.558442
	2.557162	2.551082
	2.553322	2.539563
	2.550122	2.551402
	2.548203	2.534444
	2.545963	2.513005
	2.540843	2.513005
	2.537963	2.525804
	2.535403	2.522924
	2.530604	2.523244
	2.527404	2.528044
	2.526444	2.532524
	2.524844	2.550122
	2.527724	2.542123
	2.529644	2.543723
	2.536043	2.545323
	2.541483	2.552042
	2.545963	2.549802
	2.552042	2.549802
	2.555562	2.548842
	2.559402	2.549802
	2.559722	2.558122
	2.559082	2.555562
	2.557482	2.557802
	2.556842	2.564521
	2.556522	2.574121
	2.556202	2.579560
	2.558122	2.586280
	2.563881	2.591399
	2.569001	2.595879
	2.575081	2.602599
	2.591719	2.607718
	2.584680	2.599719
	2.586600	2.599079
	2.586280	2.599719
	2.583080	2.596519
	2.579880	2.592039
	2.575721	2.589160
	2.572841	2.583720
	2.569961	2.582120
	2.571241	2.576360
	2.573801	2.569961
	2.579880	2.568041
	2.589480	2.563561
	2.600999	2.558122
	2.610598	2.552682
	2.622117	2.547563
	2.633636	2.539883
	2.644516	2.531564
	2.651555	2.520365
	2.655395	2.509805
	2.658275	2.499246
	2.662114	2.486767
	2.665954	2.474608
	2.669474	2.463729
	2.673633	2.452849
	2.683233	2.443570
	2.692832	2.436851
	2.706271	2.429491
	2.719710	2.424691
	2.726110	2.420532
	2.736029	2.419252
	2.741149	2.417332
	2.742108	2.415732
	2.740189	2.413812
	2.731549	2.412852
	2.723550	2.413492
	2.702751	2.413812
	2.683553	2.412212
	2.670754	2.413812
	2.653795	2.414132
	2.639076	2.417652
	2.625637	2.420212
	2.615398	2.424691
	2.609318	2.430131
	2.603878	2.437491
	2.595879	2.444850
	2.588520	2.453489
	2.579240	2.461489
	2.571241	2.471088
	2.557802	2.479408
	2.543403	2.487407
	2.527724	2.493806
	2.512045	2.498926
	2.502446	2.504046
	2.490287	2.509485
	2.482607	2.512045
	2.478768	2.514285
	2.479728	2.515565
	2.482287	2.515565
	2.488047	2.516845
	2.494446	2.516525
	2.501166	2.514925
	2.507246	2.515885
	2.511405	2.515245
	2.515565	2.519725
	2.515245	2.512365
	2.515245	2.509805
	2.513325	2.507885
	2.510765	2.504686
	2.507885	2.501166
	2.508205	2.496686
	2.509165	2.491887
	2.511085	2.485807
	2.515245	2.483247
	2.523244	2.477168
	2.534764	2.474608
	2.548203	2.473968
	2.579880	2.474928
	2.585960	2.477168
	2.626917	2.481007
	2.577000	2.483567
	2.580840	2.488047
	2.596839	2.491887
	2.577000	2.492847
	2.599079	2.494446
	2.558122	2.494766
	2.591079	2.493806
	2.556842	2.492847
	2.545003	2.492527
	2.531244	2.491567
	2.530924	2.494446
	2.537323	2.498286
	2.533164	2.501486
	2.532844	2.506286
	2.523244	2.512045
	2.529644	2.517805
	2.521644	2.523244
	2.515565	2.528044
	2.511085	2.530604
	2.514605	2.531564
	2.519405	2.532524
	2.522604	2.531884
	2.528364	2.530924
	2.525804	2.530604
	2.538923	2.530284
	2.537323	2.532204
	2.537963	2.533804
	2.534444	2.536683
	2.533164	2.539563
	2.533484	2.541163
	2.530284	2.542443
	2.527084	2.541803
	2.524204	2.534764
	2.525164	2.534764
	2.524204	2.526764
	2.524204	2.518125
	2.524524	2.508845
	2.528364	2.499566
	2.532844	2.491567
	2.535403	2.484847
	2.537643	2.479088
	2.539243	2.475568
	2.541483	2.471088
	2.538283	2.469808
	2.537323	2.467248
	2.534124	2.466288
	2.529004	2.465968
	2.527724	2.463409
	2.527084	2.461489
	2.529964	2.459249
	2.525484	2.457009
	2.527404	2.455409
	2.526764	2.455089
	2.533164	2.456369
	2.533484	2.461809
	2.527084	2.469488
	2.542123	2.480367
	2.533804	2.493487
	2.522604	2.506606
	2.517485	2.521005
	2.519725	2.532524
	2.512365	2.544363
	2.510445	2.551082
	2.509485	2.555562
	2.505966	2.557162
	2.509485	2.556202
	2.514285	2.552682
	2.518125	2.547883
	2.526764	2.542123
	2.535403	2.537643
	2.543083	2.534124
	2.559722	2.532204
	2.568361	2.531884
	2.577960	2.531884
	2.586920	2.532844
	2.599079	2.537003
	2.610598	2.539243
	2.620517	2.543403
	2.626277	2.545963
	2.630437	2.549482
	2.635236	2.551402
	2.636516	2.580520
	2.634916	2.556522
	2.635876	2.560362
	2.630437	2.564201
	2.624997	2.568681
	2.620517	2.575081
	2.616678	2.580520
	2.613478	2.587880
	2.607718	2.593319
	2.602919	2.597479
	2.598759	2.600359
	2.591719	2.601639
	2.589160	2.601319
	2.585960	2.598119
	2.582760	2.593319
	2.583400	2.586920
	2.583720	2.579880
	2.585640	2.572521
	2.587560	2.566761
	2.589160	2.561002
	2.593639	2.555562
	2.593319	2.552042
	2.595239	2.550122
	2.593319	2.548203
	2.589800	2.545963
	2.586280	2.545003
	2.584360	2.543083
	2.579880	2.541163
	2.577320	2.536683
	2.577960	2.533804
	2.579560	2.529964
	2.583080	2.524844
	2.587880	2.518445
	2.597159	2.511405
	2.604198	2.504686
	2.609638	2.497646
	2.613158	2.489967
	2.613478	2.483567
	2.609958	2.477488
	2.601319	2.470448
	2.588840	2.463729
	2.583080	2.457649
	2.567081	2.452209
	2.553322	2.446770
	2.540203	2.441330
	2.532204	2.436211
	2.523244	2.432371
	2.518765	2.426291
	2.516205	2.422772
	2.517485	2.416692
	2.519405	2.417012
	2.521964	2.414452
	2.526764	2.414452
	2.527404	2.415412
	2.529004	2.416372
	2.528684	2.420532
	2.526764	2.424372
	2.523244	2.428851
	2.518125	2.433011
	2.513645	2.438770
	2.512045	2.441330
	2.508205	2.446130
	2.508205	2.447730
	2.509165	2.450930
	2.511725	2.449650
	2.513965	2.450930
	2.517485	2.449330
	2.519405	2.447730
	2.521005	2.447090
	2.521005	2.448050
	2.520685	2.450610
	2.517805	2.453169
	2.515565	2.458609
	2.511405	2.462449
	2.510125	2.465968
	2.506606	2.471728
	2.505006	2.478768
	2.504366	2.483247
	2.502766	2.487727
	2.503406	2.489327
	2.502766	2.489327
	2.501486	2.490927
	2.500846	2.489007
	2.499566	2.489967
	2.498606	2.489647
	2.495726	2.492847
	2.492847	2.495726
	2.490607	2.500206
	2.486447	2.505646
	2.487087	2.510125
	2.486127	2.513005
	2.485487	2.517165
	2.485487	2.519085
	2.486127	2.518765
	2.489327	2.517165
	2.489007	2.514605
	2.492527	2.509485
	2.495406	2.505326
	2.497006	2.501806
	2.502126	2.497966
	2.502766	2.496686
	2.505646	2.497006
	2.509805	2.497966
	2.513005	2.500846
	2.519725	2.503406
	2.529324	2.507565
	2.541483	2.510445
	2.554922	2.510445
	2.565801	2.510445
	2.581160	2.506926
	2.597159	2.501486
	2.614118	2.493167
	2.631397	2.484847
	2.641956	2.474608
	2.652195	2.466288
	2.664034	2.457969
	2.671394	2.451890
	2.673633	2.449970
	2.676193	2.449970
	2.677153	2.452529
	2.674273	2.458289
	2.670114	2.464689
	2.667554	2.473968
	2.664034	2.480687
	2.662114	2.487407
	2.659874	2.491567
	2.659554	2.493806
	2.659554	2.495726
	2.660194	2.495726
	2.661154	2.496046
	2.663074	2.497006
	2.663074	2.501166
	2.662114	2.508525
	2.661794	2.519725
	2.660194	2.534444
	2.658915	2.551402
	2.656675	2.567081
	2.656035	2.581480
	2.653795	2.592359
	2.654755	2.596839
	2.654755	2.595879
	2.654115	2.587880
	2.655075	2.572841
	2.655715	2.631077
	2.654115	2.532524
	2.654435	2.510125
	2.653795	2.489327
	2.651555	2.471728
	2.651235	2.459249
	2.647715	2.450930
	2.646755	2.447410
	2.644516	2.449010
	2.641316	2.452849
	2.639396	2.458289
	2.637476	2.464689
	2.634276	2.471088
	2.631397	2.475888
	2.627237	2.480687
	2.624677	2.481647
	2.617638	2.482287
	2.612198	2.483247
	2.623397	2.482607
	2.600679	2.481327
	2.592359	2.483887
	2.586600	2.483887
	2.577320	2.488687
	2.573801	2.491887
	2.565801	2.496686
	2.560362	2.501486
	2.554282	2.505966
	2.547883	2.508205
	2.545323	2.509485
	2.543083	2.508845
	2.539563	2.504366
	2.537963	2.499246
	2.537643	2.492207
	2.539883	2.485807
	2.543723	2.479728
	2.547243	2.474928
	2.551722	2.472048
	2.554602	2.470448
	2.560362	2.472048
	2.565481	2.476208
	2.571241	2.482287
	2.575721	2.488687
	2.579560	2.495726
	2.583720	2.505006
	2.589160	2.514925
	2.595239	2.525164
	2.601319	2.536043
	2.605158	2.548203
	2.610918	2.559722
	2.615078	2.573481
	2.620197	2.586280
	2.622117	2.600679
	2.623077	2.616038
	2.618277	2.631077
	2.613798	2.648035
	2.604518	2.664994
	2.593319	2.681313
	2.584040	2.694432
	2.571241	2.703711
	2.561002	2.711071
	2.551402	2.713951
	2.547563	2.712991
	2.543403	2.708511
	2.545323	2.700511
	2.550122	2.689632
	2.559082	2.677153
	2.566121	2.664034
	2.577000	2.652515
	2.588840	2.640356
	2.599079	2.633956
	2.608998	2.626277
	2.614118	2.625317
	2.619237	2.621477
	2.623397	2.622757
	2.624677	2.626597
	2.625957	2.628837
	2.625317	2.632036
	2.623717	2.632996
	2.619557	2.631397
	2.614438	2.624037
	2.608998	2.615398
	2.602919	2.601959
	2.594919	2.586600
	2.583080	2.569961
	2.573801	2.553962
	2.565801	2.537323
	2.557482	2.522924
	2.548842	2.512365
	2.544363	2.503406
	2.543083	2.499246
	2.545323	2.497966
	2.549482	2.499566
	2.556202	2.500526
	2.567401	2.505006
	2.577960	2.510765
	2.583080	2.517485
	2.592679	2.524524
	2.602599	2.532204
	2.608358	2.541163
	2.614438	2.549802
	2.617957	2.559722
	2.624037	2.570601
	2.631716	2.584360
	2.639076	2.599079
	2.644836	2.616358
	2.656035	2.634596
	2.668194	2.654755
	2.678753	2.675233
	2.689632	2.694432
	2.695072	2.710111
	2.699872	2.723230
	2.700511	2.729949
	2.695072	2.734429
	2.684513	2.731549
	2.676513	2.724190
	2.660194	2.713951
	2.644836	2.702751
	2.625637	2.688352
	2.608998	2.678433
	2.598439	2.669154
	2.585640	2.663394
	2.577640	2.662114
	2.572521	2.664034
	2.570921	2.665954
	2.571241	2.669794
	2.572841	2.670434
	2.577640	2.667234
	2.583400	2.661474
	2.587240	2.649315
	2.591079	2.631716
	2.595879	2.613158
	2.599399	2.592359
	2.601319	2.577000
	2.601319	2.731869
	2.600999	2.547883
	2.599719	2.539563
	2.596519	2.539883
	2.592679	2.545003
	2.590759	2.558442
	2.586920	2.573801
	2.581800	2.592039
	2.576360	2.608358
	2.569321	2.624677
	2.565481	2.630437
	2.555562	2.632676
	2.547243	2.626597
	2.537003	2.614118
	2.527084	2.595879
	2.520685	2.574441
	2.512685	2.551722
	2.506286	2.530924
	2.501806	2.511725
	2.499886	2.496046
	2.499246	2.486767
	2.502126	2.481967
	2.505646	2.480367
	2.512365	2.482607
	2.514605	2.484207
	2.518125	2.488367
	2.522284	2.487407
	2.523244	2.486447
	2.522604	2.481327
	2.520045	2.474928
	2.517485	2.464689
	2.516205	2.455089
	2.513645	2.445170
	2.512045	2.436531
	2.512685	2.431411
	2.516205	2.428851
	2.520045	2.428211
	2.526124	2.431731
	2.533804	2.436211
	2.538283	2.441970
	2.542763	2.446130
	2.547243	2.452209
	2.549482	2.455729
	2.548203	2.457649
	2.543723	2.457969
	2.540203	2.457649
	2.530924	2.456689
	2.522284	2.456689
	2.516525	2.455089
	2.509165	2.456689
	2.502126	2.457329
	2.498286	2.459889
	2.496046	2.463409
	2.496046	2.467568
	2.499566	2.471408
	2.501486	2.477168
	2.505966	2.480047
	2.512365	2.483247
	2.517485	2.487727
	2.521644	2.490607
	2.528364	2.492527
	2.534124	2.494126
	2.541803	2.493806
	2.547243	2.493487
	2.556522	2.492527
	2.569641	2.491887
	2.582760	2.491567
	2.589160	2.489967
	2.606118	2.490607
	2.622437	2.490607
	2.637156	2.490927
	2.649315	2.492207
	2.655395	2.492527
	2.662754	2.493806
	2.665954	2.494446
	2.666274	2.498606
	2.661794	2.500206
	2.658595	2.505326
	2.649635	2.508525
	2.639716	2.513325
	2.630437	2.528684
	2.618597	2.525804
	2.610598	2.529964
	2.599399	2.537003
	2.587240	2.542763
	2.577320	2.545963
	2.569001	2.550442
	2.564201	2.550762
	2.555562	2.550762
	2.551082	2.550442
	2.549482	2.542763
	2.549802	2.534124
	2.551722	2.524524
	2.555242	2.514605
	2.564521	2.503086
	2.572521	2.493487
	2.580200	2.488047
	2.590759	2.486127
	2.600999	2.488047
	2.608358	2.494446
	2.615718	2.505006
	2.616998	2.517805
	2.617638	2.532204
	2.616038	2.544043
	2.608998	2.554922
	2.603239	2.561002
	2.597479	2.563561
	2.586600	2.560362
	2.575721	2.554922
	2.563561	2.546923
	2.552362	2.537643
	2.546603	2.529644
	2.537003	2.523564
	2.531564	2.522284
	2.526444	2.522604
	2.525164	2.524844
	2.522284	2.532204
	2.525484	2.538923
	2.527404	2.545323
	2.531884	2.549802
	2.536363	2.551722
	2.542123	2.547883
	2.547243	2.543403
	2.552682	2.534444
	2.557802	2.542123
	2.560362	2.510125
	2.561002	2.498286
	2.562921	2.486767
	2.565161	2.477808
	2.567401	2.470128
	2.568361	2.465968
	2.571241	2.464689
	2.577960	2.465329
	2.584040	2.493487
	2.593639	2.470768
	2.601319	2.474288
	2.615078	2.477488
	2.628197	2.480367
	2.640036	2.481327
	2.649315	2.481647
	2.660514	2.481007
	2.668194	2.478768
	2.674273	2.490927
	2.677153	2.475888
	2.678113	2.473968
	2.678113	2.473648
	2.674273	2.473968
	2.671714	2.475888
	2.667234	2.480047
	2.664034	2.485487
	2.655715	2.491247
	2.646435	2.501486
	2.635876	2.505646
	2.620837	2.512365
	2.611878	2.519725
	2.593959	2.525164
	2.575401	2.529004
	2.555882	2.530604
	2.537643	2.529964
	2.524844	2.528364
	2.507565	2.525484
	2.492207	2.522924
	2.481327	2.518445
	2.473008	2.515885
	2.467568	2.515885
	2.462769	2.516205
	2.461489	2.520045
	2.463729	2.523884
	2.465968	2.527724
	2.468528	2.532524
	2.476208	2.536363
	2.483247	2.539243
	2.492527	2.540203
	2.501166	2.540523
	2.513965	2.541163
	2.529004	2.539243
	2.546283	2.536683
	2.562921	2.535403
	2.575721	2.532524
	2.593319	2.530924
	2.611558	2.529644
	2.627237	2.527724
	2.640356	2.526124
	2.647715	2.524844
	2.656675	2.526124
	2.662754	2.523244
	2.666274	2.523884
	2.666594	2.526764
	2.665634	2.519405
	2.660514	2.526124
	2.654115	2.593639
	2.645795	2.587560
	2.635236	2.598759
	2.627877	2.577640
	2.615398	2.530924
	2.603559	2.535723
	2.591719	2.534444
	2.584680	2.538603
	2.577640	2.603239
	2.570601	2.553962
	2.567081	2.563241
	2.565161	2.567401
	2.564841	2.576041
	2.566761	2.563241
	2.568681	2.561642
	2.593639	2.558122
	2.573161	2.552042
	2.573481	2.563561
	2.576360	2.545963
	2.577320	2.541163
	2.577320	2.534444
	2.578600	2.530604
	2.581160	2.520045
	2.582440	2.516845
	2.586920	2.513645
	2.590119	2.511405
	2.594279	2.516205
	2.596519	2.508845
	2.598759	2.507885
	2.602599	2.502446
	2.604518	2.495726
	2.603559	2.485807
	2.605158	2.486767
	2.606118	2.467568
	2.603559	2.457969
	2.600999	2.456689
	2.600359	2.444850
	2.596199	2.441010
	2.591719	2.437171
	2.588200	2.435251
	2.582120	2.435571
	2.578920	2.438770
	2.575401	2.438131
	2.569641	2.440690
	2.567401	2.441970
	2.563241	2.437811
	2.560682	2.434291
	2.556842	2.428851
	2.554282	2.422772
	2.549482	2.416052
	2.543723	2.414132
	2.540523	2.409653
	2.536043	2.409973
	2.530604	2.416052
	2.525484	2.422452
	2.522924	2.433331
	2.521324	2.446130
	2.519725	2.460209
	2.519405	2.471728
	2.521324	2.482927
	2.521964	2.488687
	2.522604	2.492847
	2.522924	2.491887
	2.523244	2.487407
	2.524204	2.481327
	2.521005	2.473968
	2.521644	2.466288
	2.519405	2.462449
	2.518125	2.462769
	2.519085	2.464369
	2.521324	2.471728
	2.526764	2.481327
	2.533484	2.493806
	2.543723	2.507885
	2.556522	2.522284
	2.564521	2.532844
	2.578600	2.541803
	2.594919	2.549162
	2.601639	2.545323
	2.605478	2.544363
	2.606118	2.540843
	2.603559	2.532844
	2.594599	2.528364
	2.582760	2.523564
	2.575081	2.522284
	2.557162	2.522924
	2.547883	2.526444
	2.532844	2.529964
	2.525804	2.547883
	2.523244	2.537963
	2.524204	2.541803
	2.532844	2.542763
	2.545323	2.542763
	2.561642	2.539563
	2.572201	2.534444
	2.596839	2.526444
	2.612198	2.517805
	2.628517	2.508525
	2.643876	2.499566
	2.652515	2.490927
	2.664994	2.482607
	2.673313	2.476528
	2.681313	2.471088
	2.688352	2.467888
	2.695392	2.465329
	2.704351	2.462449
	2.715870	2.471088
	2.730589	2.462129
	2.741788	2.463729
	2.754588	2.466608
	2.768667	2.467568
	2.784025	2.471088
	2.796185	2.472368
	2.801304	2.473968
	2.807704	2.473968
	2.808984	2.475248
	2.809304	2.475248
	2.808664	2.475568
	2.805144	2.477488
	2.799704	2.482287
	2.795545	2.488367
	2.789785	2.497646
	2.784985	2.508205
	2.782106	2.519405
	2.775066	2.532204
	2.769307	2.544683
	2.758747	2.555882
	2.747228	2.566761
	2.736029	2.572521
	2.716830	2.578280
	2.696032	2.579560
	2.673633	2.580200
	2.649635	2.577320
	2.633956	2.573801
	2.612838	2.569961
	2.591399	2.568041
	2.571881	2.565801
	2.563241	2.565801
	2.552042	2.568041
	2.543723	2.570921
	2.536363	2.575081
	2.531244	2.578920
	2.526444	2.581800
	2.521005	2.584040
	2.513325	2.585320
	2.508845	2.581800
	2.498926	2.580840
	2.493167	2.576041
	2.485807	2.569321
	2.476208	2.563881
	2.470448	2.559402
	2.464689	2.554602
	2.464049	2.553322
	2.462449	2.554282
	2.463089	2.558122
	2.465968	2.565161
	2.471088	2.573161
	2.495406	2.581480
	2.484847	2.589160
	2.494126	2.594919
	2.506606	2.596519
	2.515565	2.597159
	2.529964	2.593959
	2.544683	2.586280
	2.561962	2.576041
	2.579240	2.563241
	2.593639	2.547563
	2.603878	2.534444
	2.618597	2.519085
	2.632676	2.508845
	2.641316	2.502446
	2.654115	2.501806
	2.658595	2.504686
	2.674273	2.513965
	2.662754	2.525804
	2.672674	2.540523
	2.657315	2.555242
	2.643876	2.568681
	2.647395	2.577640
	2.650595	2.583400
	2.612198	2.584680
	2.600039	2.578920
	2.585640	2.568681
	2.571561	2.555562
	2.570601	2.539563
	2.550442	2.525164
	2.545643	2.511085
	2.545963	2.501166
	2.550762	2.497646
	2.546923	2.498606
	2.550762	2.504366
	2.558442	2.513645
	2.564201	2.524524
	2.573161	2.534124
	2.577640	2.540843
	2.583080	2.590439
	2.591399	2.541163
	2.598119	2.532524
	2.600999	2.521324
	2.606758	2.505006
	2.608998	2.487727
	2.613478	2.471728
	2.614758	2.458609
	2.615398	2.451250
	2.616678	2.459249
	2.617957	2.450290
	2.616998	2.457329
	2.613478	2.468208
	2.610278	2.479088
	2.604198	2.492207
	2.599079	2.501486
	2.595559	2.507246
	2.588200	2.506286
	2.582120	2.501166
	2.581480	2.490607
	2.577320	2.477168
	2.575401	2.462129
	2.574761	2.447090
	2.576680	2.437171
	2.577960	2.428531
	2.578600	2.423092
	2.578920	2.427251
	2.578280	2.430451
	2.577320	2.440050
	2.574761	2.454129
	2.568681	2.468848
	2.563561	2.483567
	2.558442	2.496366
	2.553002	2.504686
	2.550762	2.507885
	2.544363	2.506606
	2.541483	2.500846
	2.540523	2.491567
	2.538603	2.479728
	2.539563	2.467248
	2.538603	2.456369
	2.537963	2.445810
	2.538603	2.440370
	2.539883	2.437811
	2.539243	2.440050
	2.543723	2.441650
	2.545963	2.446450
	2.552682	2.452849
	2.558122	2.458929
	2.566761	2.463089
	2.574121	2.466288
	2.583720	2.467568
	2.591399	2.465329
	2.595559	2.463729
	2.598439	2.461489
	2.598439	2.459569
	2.593639	2.459889
	2.585640	2.462129
	2.580200	2.466288
	2.570281	2.472368
	2.560682	2.483247
	2.553322	2.492527
	2.548842	2.505006
	2.546283	2.515565
	2.548842	2.525484
	2.551722	2.533484
	2.556522	2.539563
	2.561962	2.542123
	2.565481	2.545963
	2.569961	2.546923
	2.570601	2.547883
	2.570601	2.560682
	2.565481	2.552682
	2.559722	2.557802
	2.552042	2.561642
	2.543723	2.565481
	2.537003	2.572201
	2.532524	2.576041
	2.530924	2.580520
	2.532204	2.583720
	2.536043	2.585960
	2.543723	2.585320
	2.549482	2.585320
	2.558762	2.585320
	2.565801	2.585320
	2.573801	2.582760
	2.576041	2.581160
	2.576041	2.579560
	2.572201	2.577000
	2.566121	2.575721
	2.559082	2.572201
	2.547883	2.568681
	2.540843	2.563241
	2.532204	2.555242
	2.523244	2.553322
	2.515565	2.548842
	2.513005	2.544683
	2.507885	2.541483
	2.504686	2.538923
	2.503086	2.537323
	2.499566	2.537323
	2.496366	2.536683
	2.492527	2.538283
	2.487727	2.540203
	2.482607	2.540523
	2.477488	2.543403
	2.474608	2.544683
	2.471408	2.545963
	2.471728	2.546923
	2.473648	2.548523
	2.477488	2.549802
	2.481327	2.552682
	2.487727	2.555562
	2.495726	2.558762
	2.503726	2.563561
	2.510765	2.569001
	2.515565	2.573481
	2.521005	2.578920
	2.525164	2.584680
	2.529324	2.589160
	2.530924	2.591079
	2.530924	2.592039
	2.530924	2.592039
	2.529004	2.589160
	2.527404	2.586280
	2.525164	2.581800
	2.521324	2.575401
	2.518125	2.571241
	2.513005	2.566121
	2.509805	2.560682
	2.505326	2.556842
	2.501806	2.554602
	2.497326	2.551082
	2.494126	2.546923
	2.491887	2.544363
	2.491567	2.541163
	2.491247	2.537643
	2.493487	2.531244
	2.496686	2.526764
	2.500526	2.520365
	2.503086	2.513325
	2.508525	2.504686
	2.514605	2.495406
	2.519405	2.487727
	2.522924	2.480367
	2.528364	2.473968
	2.534124	2.468528
	2.539563	2.464689
	2.546603	2.461489
	2.553322	2.461169
	2.563881	2.461169
	2.577000	2.461489
	2.584680	2.463729
	2.595559	2.465968
	2.604518	2.465329
	2.614118	2.467248
	2.624357	2.466288
	2.632036	2.465329
	2.639076	2.462769
	2.642276	2.460849
	2.648675	2.456689
	2.656995	2.454449
	2.662434	2.451250
	2.672993	2.448370
	2.680033	2.447410
	2.691872	2.446770
	2.706271	2.445170
	2.719710	2.443570
	2.732189	2.439730
	2.739549	2.435571
	2.746908	2.429491
	2.750428	2.421812
	2.748508	2.411572
	2.746908	2.400373
	2.740189	2.390774
	2.729309	2.379895
	2.719070	2.371575
	2.709471	2.366456
	2.700831	2.383414
	2.693472	2.362296
	2.685473	2.365176
	2.680673	2.370935
	2.675873	2.376375
	2.673313	2.385654
	2.668834	2.393654
	2.664034	2.400053
	2.656035	2.405173
	2.646755	2.412212
	2.638756	2.409973
	2.627237	2.409973
	2.614438	2.409973
	2.604198	2.408693
	2.593639	2.408693
	2.586920	2.411892
	2.577960	2.414132
	2.572521	2.422132
	2.567081	2.431731
	2.564201	2.441010
	2.560042	2.452849
	2.555242	2.464049
	2.549802	2.474928
	2.541803	2.482927
	2.537643	2.489007
	2.529644	2.493487
	2.521964	2.495086
	2.514605	2.504686
	2.507565	2.493167
	2.504046	2.491567
	2.498606	2.491567
	2.496046	2.492847
	2.494446	2.494446
	2.492847	2.498926
	2.493167	2.503726
	2.492207	2.508845
	2.494446	2.514285
	2.491567	2.518445
	2.488047	2.521005
	2.486767	2.519725
	2.481967	2.519085
	2.480687	2.516525
	2.478448	2.512045
	2.477488	2.508205
	2.476528	2.503086
	2.478768	2.500206
	2.479088	2.499566
	2.482287	2.500206
	2.484847	2.505646
	2.486127	2.511085
	2.488367	2.519405
	2.490927	2.529644
	2.491567	2.540203
	2.490287	2.549482
	2.489327	2.558442
	2.486767	2.565161
	2.484207	2.570601
	2.481967	2.573481
	2.480687	2.576041
	2.482607	2.575401
	2.482287	2.574121
	2.483887	2.570921
	2.487407	2.568681
	2.489327	2.565801
	2.493167	2.562921
	2.497006	2.561962
	2.498606	2.561002
	2.500846	2.561322
	2.501806	2.561962
	2.503406	2.564201
	2.503406	2.567401
	2.503726	2.570281
	2.503406	2.571241
	2.504046	2.573801
	2.504046	2.575401
	2.504686	2.577640
	2.503726	2.579560
	2.504046	2.582760
	2.503086	2.585320
	2.500526	2.588840
	2.497966	2.592359
	2.495086	2.597479
	2.493167	2.602919
	2.491567	2.608358
	2.490287	2.612838
	2.489327	2.616038
	2.490927	2.617638
	2.491567	2.617318
	2.494446	2.615078
	2.497006	2.610598
	2.501486	2.604198
	2.505646	2.595879
	2.508845	2.587240
	2.514285	2.577960
	2.521005	2.567081
	2.527404	2.560042
	2.532204	2.552362
	2.540203	2.547243
	2.548842	2.542763
	2.558762	2.540523
	2.569961	2.540203
	2.578600	2.538283
	2.591079	2.537643
	2.602919	2.536363
	2.615078	2.532524
	2.627237	2.528044
	2.633636	2.521005
	2.645156	2.514285
	2.650595	2.501486
	2.656355	2.491567
	2.658915	2.480687
	2.660834	2.469808
	2.660834	2.461489
	2.656355	2.454449
	2.655395	2.450290
	2.648995	2.448690
	2.647395	2.448370
	2.642276	2.449330
	2.638116	2.451250
	2.636196	2.451250
	2.635876	2.451890
	2.634916	2.449330
	2.638756	2.445170
	2.640676	2.438450
	2.647715	2.431091
	2.657315	2.422772
	2.656355	2.413492
	2.660514	2.402613
	2.666274	2.395254
	2.667234	2.386934
	2.672993	2.381815
	2.676833	2.378615
	2.676833	2.376695
	2.676833	2.376695
	2.673953	2.377015
	2.671074	2.378935
	2.665954	2.381495
	2.659234	2.381495
	2.652195	2.380855
	2.646115	2.378935
	2.642276	2.374135
	2.641636	2.368376
	2.641636	2.376695
	2.645475	2.356536
	2.650915	2.350137
	2.656675	2.346297
	2.666594	2.345017
	2.675873	2.346937
	2.684513	2.352377
	2.688992	2.359416
	2.692192	2.370295
	2.692512	2.380535
	2.688672	2.391414
	2.684513	2.401013
	2.678753	2.410293
	2.670114	2.415092
	2.659234	2.418932
	2.651555	2.420852
	2.640996	2.422132
	2.634916	2.424052
	2.627237	2.425651
	2.619237	2.428851
	2.612838	2.434611
	2.604518	2.442930
	2.598119	2.453809
	2.590759	2.466288
	2.582760	2.478448
	2.573801	2.491247
	2.565161	2.503086
	2.602599	2.512365
	2.553642	2.519085
	2.549162	2.523884
	2.545963	2.526764
	2.546603	2.527724
	2.544683	2.527724
	2.545963	2.527724
	2.545963	2.531244
	2.545643	2.536363
	2.548523	2.541163
	2.546603	2.550762
	2.545323	2.561002
	2.544043	2.571241
	2.542763	2.581160
	2.542443	2.591719
	2.542123	2.598119
	2.543083	2.603559
	2.547563	2.607398
	2.553322	2.609638
	2.554282	2.609638
	2.561322	2.611558
	2.567721	2.614438
	2.571561	2.620517
	2.574121	2.627557
	2.573801	2.640996
	2.572841	2.657635
	2.567721	2.676833
	2.563561	2.697632
	2.556202	2.718430
	2.546603	2.736029
	2.535723	2.751068
	2.526764	2.761627
	2.517485	2.766747
	2.510765	2.765467
	2.505646	2.756827
	2.499246	2.744988
	2.495726	2.726750
	2.492207	2.705311
	2.491247	2.682593
	2.491247	2.657635
	2.489647	2.635236
	2.491887	2.613478
	2.494766	2.595239
	2.497006	2.579240
	2.502446	2.653155
	2.509485	2.561322
	2.517805	2.556522
	2.527084	2.553642
	2.535403	2.553322
	2.546283	2.552362
	2.556522	2.549802
	2.569001	2.546923
	2.573481	2.541483
	2.582120	2.537643
	2.590439	2.528044
	2.590119	2.522604
	2.591079	2.517485
	2.593959	2.515885
	2.588520	2.516525
	2.588200	2.520365
	2.584360	2.527084
	2.579560	2.533484
	2.577000	2.542123
	2.573801	2.549802
	2.569321	2.555242
	2.568681	2.557802
	2.567721	2.556842
	2.568681	2.551082
	2.574441	2.542443
	2.579560	2.533164
	2.586920	2.521644
	2.595879	2.511085
	2.601639	2.502766
	2.612518	2.498926
	2.620517	2.497646
	2.628517	2.500526
	2.632036	2.507246
	2.636836	2.517165
	2.639716	2.529644
	2.640996	2.540843
	2.638436	2.554282
	2.637796	2.560682
	2.634596	2.567401
	2.629797	2.569641
	2.627877	2.568681
	2.624677	2.562601
	2.624677	2.552362
	2.624997	2.539883
	2.629477	2.526764
	2.640356	2.513325
	2.643556	2.505326
	2.649955	2.492527
	2.663074	2.486127
	2.675873	2.480687
	2.688672	2.474928
	2.698912	2.469808
	2.705311	2.461169
	2.711391	2.485807
	2.713631	2.439090
	2.713311	2.423732
	2.709471	2.406773
	2.701471	2.391094
	2.689312	2.377335
	2.675233	2.365176
	2.659554	2.359416
	2.648995	2.356856
	2.633636	2.358456
	2.621477	2.364856
	2.609958	2.373815
	2.601319	2.384694
	2.596199	2.393974
	2.589160	2.404213
	2.582760	2.409013
	2.577000	2.413172
	2.570921	2.413172
	2.567081	2.411252
	2.560362	2.404853
	2.554282	2.399093
	2.545963	2.392374
	2.539883	2.387254
	2.535083	2.399413
	2.528684	2.408053
	2.524524	2.470768
	2.522924	2.451570
	2.521644	2.518765
	2.522604	2.461809
	2.523244	2.569961
	2.526124	2.757147
	2.529004	2.590439
	2.531244	2.835542
	2.536043	2.637796
	2.537963	2.760027
	2.543083	2.549162
	2.548203	2.432051
	2.551722	2.433331
	2.553002	2.428211
	2.556842	2.486447
	2.563241	2.438770
	2.569321	2.491887
	2.573801	2.449010
	2.582760	2.483567
	2.592359	2.426291
	2.601319	2.435251
	2.606758	2.435251
	2.610918	2.444850
	2.614118	2.476848
	2.614758	2.461489
	2.614118	2.490927
	2.610598	2.470768
	2.607078	2.494126
	2.601319	2.466928
	2.593319	2.471728
	2.583080	2.476208
	2.577960	2.483567
	2.566761	2.504686
	2.556522	2.498926
	2.546603	2.521005
	2.536683	2.513645
	2.532524	2.528044
	2.524204	2.516205
	2.519085	2.520365
	2.515245	2.522924
	2.512365	2.527724
	2.511725	2.536043
	2.514285	2.531244
	2.515565	2.540203
	2.518125	2.532204
	2.521324	2.538283
	2.522284	2.530284
	2.524204	2.536683
	2.525164	2.543083
	2.524844	2.545643
	2.523244	2.559082
	2.522284	2.563561
	2.521644	2.576680
	2.520045	2.577960
	2.521005	2.591399
	2.522924	2.586600
	2.525804	2.590759
	2.531244	2.585320
	2.538603	2.633636
	2.545643	2.664354
	2.553322	2.628837
	2.561962	2.631077
	2.570281	2.592999
	2.577960	2.583080
	2.586600	2.600999
	2.588840	2.562601
	2.593959	2.564201
	2.597479	2.571881
	2.600039	2.583080
	2.600359	2.569321
	2.600679	2.585320
	2.600359	2.571881
	2.598759	2.573801
	2.596199	2.559722
	2.592039	2.549802
	2.590439	2.542443
	2.586280	2.539883
	2.581800	2.534764
	2.576041	2.521964
	2.571881	2.521964
	2.565801	2.515565
	2.559722	2.517485
	2.554282	2.514925
	2.548203	2.511085
	2.543403	2.518125
	2.537323	2.508525
	2.532204	2.504366
	2.528364	2.494126
	2.524844	2.487727
	2.521644	2.476848
	2.520685	2.467568
	2.519085	2.459249
	2.520045	2.450610
	2.521005	2.447730
	2.521644	2.445810
	2.523564	2.446450
	2.526124	2.448370
	2.529644	2.451570
	2.532204	2.455409
	2.534444	2.459249
	2.535723	2.459889
	2.537323	2.459249
	2.537003	2.457329
	2.537643	2.453169
	2.533804	2.447730
	2.529644	2.440370
	2.526444	2.436531
	2.522604	2.431091
	2.521005	2.431731
	2.520365	2.433331
	2.519405	2.437171
	2.521644	2.443890
	2.527084	2.451250
	2.531884	2.459889
	2.537963	2.465329
	2.545323	2.470448
	2.553322	2.471088
	2.557802	2.471408
	2.561322	2.467888
	2.562921	2.463089
	2.563561	2.458289
	2.563561	2.452849
	2.562921	2.448370
	2.561322	2.447730
	2.561322	2.450930
	2.559402	2.454449
	2.593959	2.463089
	2.558762	2.471728
	2.561002	2.481327
	2.561002	2.491567
	2.562282	2.501806
	2.563881	2.509485
	2.564201	2.512045
	2.563881	2.514605
	2.563241	2.514285
	2.567081	2.514285
	2.561002	2.513005
	2.561322	2.511085
	2.561642	2.511085
	2.562921	2.512365
	2.568681	2.513965
	2.573161	2.518765
	2.577000	2.524204
	2.587560	2.529004
	2.595559	2.534444
	2.604198	2.539243
	2.613158	2.545963
	2.616998	2.543723
	2.620837	2.543723
	2.622757	2.543403
	2.621157	2.541483
	2.617957	2.539243
	2.612198	2.536363
	2.602599	2.535723
	2.595879	2.534124
	2.586280	2.533804
	2.582440	2.533164
	2.575081	2.533804
	2.569961	2.534764
	2.567081	2.533164
	2.568361	2.532844
	2.568361	2.533484
	2.571561	2.536363
	2.576041	2.529324
	2.582120	2.527084
	2.589480	2.524844
	2.594279	2.523564
	2.601639	2.522604
	2.607718	2.522604
	2.612518	2.521964
	2.643876	2.523564
	2.616998	2.529004
	2.617957	2.527404
	2.632676	2.528684
	2.664354	2.529324
	2.658275	2.530604
	2.697632	2.530284
	2.685153	2.529324
	2.735069	2.526764
	2.648035	2.523884
	2.634916	2.520045
	2.632356	2.517485
	2.615398	2.515565
	2.656355	2.513645
	2.628197	2.511725
	2.624357	2.511725
	2.613158	2.512365
	2.623077	2.513005
	2.594919	2.512045
	2.590759	2.511725
	2.588840	2.510765
	2.580200	2.509165
	2.589800	2.506926
	2.575081	2.504366
	2.569961	2.502446
	2.561642	2.497646
	2.561002	2.495726
	2.542123	2.490607
	2.531564	2.489007
	2.523244	2.486767
	2.515245	2.488047
	2.513325	2.489007
	2.503406	2.490927
	2.500846	2.494446
	2.493806	2.498926
	2.494446	2.503406
	2.486447	2.506926
	2.486127	2.510765
	2.484207	2.523244
	2.481967	2.511725
	2.487727	2.509805
	2.487727	2.505646
	2.489647	2.501486
	2.493487	2.496046
	2.502126	2.490927
	2.507565	2.487407
	2.519725	2.484847
	2.537323	2.482927
	2.554282	2.481647
	2.569641	2.481967
	2.588200	2.483567
	2.610278	2.486767
	2.624677	2.488367
	2.638756	2.490607
	2.648355	2.492527
	2.658915	2.492527
	2.662754	2.493806
	2.657315	2.492847
	2.657315	2.491247
	2.646435	2.489327
	2.646755	2.486767
	2.640996	2.484527
	2.612198	2.483887
	2.602599	2.481647
	2.592359	2.480687
	2.584680	2.480687
	2.577640	2.478128
	2.575721	2.476528
	2.561002	2.473968
	2.568041	2.470448
	2.552362	2.465649
	2.545323	2.469168
	2.546603	2.462449
	2.552362	2.449330
	2.552042	2.442610
	2.560682	2.437491
	2.568361	2.431731
	2.572841	2.428531
	2.579880	2.426611
	2.587880	2.427251
	2.592679	2.428531
	2.600359	2.431731
	2.605158	2.434291
	2.609958	2.437171
	2.610918	2.441650
	2.610598	2.447410
	2.607078	2.453169
	2.603878	2.457969
	2.596199	2.462129
	2.588520	2.466928
	2.579880	2.472368
	2.568681	2.475888
	2.563241	2.479088
	2.553002	2.481967
	2.547243	2.485487
	2.535083	2.487407
	2.527724	2.598119
	2.522924	2.492847
	2.514605	2.494446
	2.506606	2.495406
	2.500206	2.496686
	2.495406	2.497966
	2.491567	2.501166
	2.485487	2.511405
	2.482287	2.507246
	2.479728	2.510445
	2.478448	2.515245
	2.476848	2.519725
	2.474928	2.523244
	2.473648	2.527084
	2.468528	2.529964
	2.472688	2.531244
	2.471728	2.532844
	2.471088	2.532524
	2.470128	2.532204
	2.471728	2.529644
	2.473328	2.528684
	2.475568	2.525804
	2.480367	2.526444
	2.486447	2.529644
	2.495406	2.533484
	2.502126	2.538923
	2.513325	2.543083
	2.523244	2.549482
	2.534444	2.554282
	2.546603	2.557482
	2.554922	2.557162
	2.562921	2.556522
	2.577000	2.552362
	2.587560	2.545323
	2.594599	2.535403
	2.605478	2.523884
	2.617318	2.512365
	2.629477	2.502126
	2.643876	2.492847
	2.652835	2.484207
	2.668514	2.479088
	2.683233	2.477168
	2.697312	2.476528
	2.709791	2.477168
	2.719390	2.478768
	2.729309	2.479408
	2.737949	2.479728
	2.743388	2.477168
	2.744348	2.474288
	2.743068	2.473328
	2.737629	2.468208
	2.728989	2.464049
	2.716510	2.458929
	2.704031	2.457649
	2.693472	2.456369
	2.675553	2.460849
	2.659874	2.465649
	2.640676	2.473968
	2.629157	2.483247
	2.611558	2.492527
	2.593319	2.503406
	2.575721	2.511405
	2.558762	2.517165
	2.549482	2.534444
	2.536363	2.519725
	2.525484	2.516525
	2.518765	2.510445
	2.514925	2.502446
	2.513965	2.494126
	2.517485	2.487407
	2.522284	2.481327
	2.529964	2.475568
	2.539243	2.473328
	2.546283	2.471408
	2.556522	2.472688
	2.568681	2.473648
	2.578600	2.481647
	2.590119	2.477488
	2.597159	2.478128
	2.607718	2.477488
	2.615078	2.475888
	2.622757	2.473648
	2.628837	2.471728
	2.632036	2.468848
	2.636516	2.466288
	2.640036	2.465649
	2.639716	2.465009
	2.641316	2.467888
	2.640036	2.470768
	2.639076	2.475568
	2.635236	2.481647
	2.632676	2.489007
	2.629477	2.497006
	2.625317	2.505966
	2.618917	2.513965
	2.611878	2.521964
	2.605478	2.529964
	2.600999	2.535723
	2.593959	2.541163
	2.588840	2.542443
	2.581160	2.543723
	2.575401	2.541803
	2.569321	2.541163
	2.561642	2.538603
	2.554282	2.536683
	2.546923	2.536043
	2.541483	2.537003
	2.534764	2.539243
	2.526124	2.542763
	2.517805	2.548523
	2.512685	2.556202
	2.507246	2.562601
	2.500526	2.568681
	2.496046	2.571561
	2.493806	2.573801
	2.493167	2.572201
	2.492847	2.566441
	2.495086	2.558442
	2.497006	2.548842
	2.502126	2.536043
	2.507246	2.525804
	2.511405	2.514605
	2.516845	2.506606
	2.521324	2.502126
	2.523884	2.500526
	2.526444	2.501166
	2.527084	2.503086
	2.526444	2.505966
	2.523564	2.509805
	2.520045	2.511725
	2.517485	2.512365
	2.513325	2.509805
	2.508845	2.505966
	2.506606	2.497966
	2.504686	2.489967
	2.503406	2.480687
	2.503086	2.472688
	2.503406	2.465009
	2.505006	2.460849
	2.506286	2.458289
	2.509805	2.458929
	2.512365	2.461809
	2.516845	2.467248
	2.520685	2.470448
	2.522284	2.474608
	2.525164	2.478128
	2.527084	2.478768
	2.528684	2.478128
	2.528684	2.475568
	2.526764	2.470768
	2.525164	2.465649
	2.521324	2.459889
	2.516845	2.456369
	2.511725	2.453169
	2.507885	2.452849
	2.503726	2.454129
	2.501486	2.456689
	2.500206	2.460849
	2.502766	2.465329
	2.503726	2.469168
	2.505966	2.472048
	2.510125	2.472688
	2.513965	2.471408
	2.517485	2.468528
	2.519725	2.462769
	2.521644	2.456369
	2.523884	2.451570
	2.526444	2.444210
	2.527404	2.440050
	2.528684	2.437491
	2.527404	2.440050
	2.531884	2.444850
	2.534444	2.451250
	2.535403	2.463089
	2.537003	2.474288
	2.536363	2.487087
	2.536043	2.498286
	2.534444	2.507565
	2.533164	2.514925
	2.530924	2.518445
	2.529644	2.518765
	2.528044	2.517485
	2.529644	2.512685
	2.531564	2.508525
	2.536043	2.505006
	2.542443	2.501486
	2.551082	2.499886
	2.561002	2.499886
	2.568361	2.503086
	2.579240	2.505326
	2.589800	2.509485
	2.596839	2.511725
	2.601639	2.513965
	2.604198	2.512685
	2.606438	2.510445
	2.605478	2.506606
	2.603239	2.502446
	2.599399	2.495726
	2.596519	2.489967
	2.592999	2.486767
	2.590119	2.482287
	2.595239	2.481327
	2.583080	2.482607
	2.581480	2.485807
	2.578280	2.489647
	2.576680	2.494446
	2.588520	2.497006
	2.572841	2.500206
	2.569641	2.501166
	2.564841	2.502126
	2.561002	2.501166
	2.559402	2.499246
	2.553002	2.496366
	2.548842	2.494126
	2.545643	2.493806
	2.540843	2.493806
	2.543723	2.494126
	2.538283	2.494446
	2.537643	2.497326
	2.535403	2.499886
	2.535083	2.502126
	2.533804	2.504046
	2.531884	2.505006
	2.529324	2.506286
	2.527084	2.505006
	2.524204	2.504046
	2.522924	2.504046
	2.521324	2.502766
	2.519405	2.503086
	2.519085	2.503726
	2.519725	2.506606
	2.520685	2.507246
	2.521005	2.511085
	2.523884	2.513325
	2.525804	2.517485
	2.525164	2.520365
	2.526764	2.521964
	2.527084	2.522924
	2.526764	2.523884
	2.525804	2.523244
	2.523884	2.520685
	2.523884	2.518765
	2.522604	2.515885
	2.520685	2.513645
	2.522284	2.508845
	2.521644	2.508205
	2.519405	2.506286
	2.517805	2.504366
	2.514925	2.503086
	2.515885	2.500846
	2.513325	2.517485
	2.511085	2.497006
	2.507565	2.494766
	2.505966	2.491567
	2.503406	2.488367
	2.500526	2.485487
	2.498606	2.484207
	2.496046	2.480687
	2.493806	2.479408
	2.493806	2.477488
	2.494126	2.476208
	2.494446	2.475888
	2.496366	2.472368
	2.500206	2.470768
	2.503406	2.478448
	2.505966	2.467248
	2.512045	2.466608
	2.516205	2.467248
	2.523884	2.468208
	2.528364	2.470448
	2.531884	2.473648
	2.536683	2.476528
	2.540843	2.480687
	2.545323	2.483247
	2.545643	2.486447
	2.547243	2.488047
	2.546923	2.487727
	2.546283	2.487087
	2.544363	2.485167
	2.542763	2.483567
	2.540523	2.482927
	2.537643	2.482607
	2.534764	2.484207
	2.531884	2.486767
	2.530924	2.490607
	2.528684	2.493487
	2.529644	2.499566
	2.529964	2.504686
	2.532204	2.508525
	2.533484	2.509805
	2.535723	2.510765
	2.538923	2.509165
	2.539883	2.506606
	2.539883	2.500526
	2.539883	2.495406
	2.539883	2.490927
	2.537003	2.487727
	2.534764	2.487727
	2.530604	2.489647
	2.528044	2.493167
	2.524524	2.504366
	2.521644	2.507565
	2.519085	2.516845
	2.516205	2.523564
	2.514605	2.531884
	2.513325	2.536043
	2.513965	2.537643
	2.514285	2.536363
	2.513325	2.535723
	2.513005	2.532524
	2.514605	2.529964
	2.513965	2.528364
	2.513325	2.527724
	2.514605	2.591399
	2.514925	2.530924
	2.515885	2.535083
	2.515885	2.539883
	2.515885	2.541483
	2.516845	2.545323
	2.516845	2.543403
	2.516845	2.539883
	2.515885	2.533484
	2.520685	2.525804
	2.516845	2.514605
	2.517165	2.506606
	2.519085	2.495726
	2.522284	2.487087
	2.526764	2.479088
	2.529324	2.473328
	2.533804	2.470448
	2.539883	2.474928
	2.545963	2.468848
	2.547883	2.468848
	2.553002	2.469488
	2.555562	2.469808
	2.559402	2.468848
	2.560682	2.466608
	2.559722	2.462769
	2.560042	2.459569
	2.558442	2.456049
	2.555882	2.454129
	2.553642	2.453809
	2.553002	2.454449
	2.555882	2.457969
	2.550122	2.459569
	2.550762	2.464689
	2.549482	2.472368
	2.547883	2.478448
	2.548203	2.485487
	2.547563	2.491887
	2.547243	2.497646
	2.546923	2.504366
	2.545963	2.502766
	2.545643	2.503086
	2.547243	2.500846
	2.545963	2.501806
	2.546923	2.493487
	2.547883	2.489007
	2.548842	2.483567
	2.551082	2.486447
	2.553002	2.476208
	2.553962	2.471088
	2.553962	2.470128
	2.554282	2.710751
	2.553322	2.472048
	2.550762	2.474608
	2.548842	2.476208
	2.544683	2.484847
	2.541483	2.482287
	2.534764	2.481647
	2.527084	2.481007
	2.522924	2.495726
	2.514925	2.477488
	2.508525	2.474608
	2.502126	2.471728
	2.495086	2.476848
	2.492847	2.469488
	2.487407	2.471088
	2.484207	2.473648
	2.481327	2.482287
	2.479088	2.482607
	2.477488	2.486767
	2.475248	2.492847
	2.474608	2.497646
	2.476208	2.498286
	2.476208	2.497646
	2.476208	2.496686
	2.479408	2.494126
	2.483887	2.489647
	2.490607	2.486767
	2.493806	2.483887
	2.502766	2.481647
	2.510445	2.484207
	2.519405	2.486447
	2.528684	2.490927
	2.534124	2.496686
	2.542443	2.501166
	2.549802	2.506286
	2.554602	2.510445
	2.558442	2.511725
	2.561002	2.513005
	2.563241	2.509165
	2.565161	2.719390
	2.570281	2.504686
	2.564521	2.499886
	2.565481	2.495406
	2.563561	2.509485
	2.564521	2.491567
	2.562282	2.491887
	2.562601	2.492847
	2.562282	2.497006
	2.559402	2.499566
	2.556842	2.503086
	2.556842	2.505006
	2.555242	2.506926
	2.554602	2.505646
	2.554602	2.501806
	2.556842	2.497006
	2.560042	2.489967
	2.563241	2.483887
	2.567081	2.477488
	2.572201	2.483247
	2.576680	2.471408
	2.579560	2.470448
	2.580520	2.474288
	2.580840	2.483887
	2.577960	2.485487
	2.573161	2.493167
	2.566761	2.502446
	2.561642	2.509485
	2.553962	2.514605
	2.545003	2.517485
	2.538283	2.522604
	2.532844	2.517165
	2.528684	2.513645
	2.525164	2.509485
	2.524524	2.510125
	2.521964	2.504686
	2.522604	2.503086
	2.526124	2.503086
	2.527724	2.505966
	2.532204	2.509805
	2.537643	2.515885
	2.541163	2.521644
	2.546923	2.526124
	2.552362	2.530284
	2.557162	2.531884
	2.563561	2.536043
	2.567081	2.528044
	2.570921	2.523564
	2.575401	2.514925
	2.578280	2.506606
	2.579240	2.499566
	2.578600	2.494126
	2.579240	2.498286
	2.608038	2.488047
	2.572841	2.519085
	2.569321	2.513645
	2.562921	2.553002
	2.557482	2.495406
	2.552362	2.619557
	2.545003	2.553642
	2.541483	2.537643
	2.535403	2.507246
	2.531564	2.575081
	2.526764	2.554602
	2.522284	2.508845
	2.521964	2.519405
	2.517165	2.527404
	2.515885	2.513005
	2.514925	2.504366
	2.513005	2.538283
	2.513645	2.513005
	2.513645	2.506926
	2.513645	2.526124
	2.515565	2.523244
	2.518765	2.518765
	2.521964	2.516525
	2.528684	2.526444
	2.535723	2.529644
	2.545003	2.523884
	2.552362	2.535403
	2.562601	2.534444
	2.572841	2.522924
	2.582760	2.519085
	2.591079	2.525484
	2.595239	2.548842
	2.601639	2.511085
	2.605478	2.516205
	2.607398	2.507246
	2.606118	2.503086
	2.606118	2.499246
	2.603559	2.501166
	2.601959	2.497326
	2.598119	2.491887
	2.594599	2.492207
	2.592999	2.490287
	2.642276	2.482287
	2.588200	2.478448
	2.584680	2.480687
	2.583080	2.498606
	2.579880	2.469488
	2.579240	2.471408
	2.578920	2.467248
	2.578920	2.467888
	2.578600	2.470128
	2.575721	2.472368
	2.575081	2.476208
	2.573801	2.480687
	2.571561	2.489647
	2.569961	2.497326
	2.567081	2.500846
	2.565481	2.507565
	2.562601	2.513325
	2.568041	2.516525
	2.560682	2.519725
	2.561002	2.522284
	2.561642	2.541483
	2.563241	2.520685
	2.564841	2.520045
	2.566121	2.520365
	2.568681	2.516525
	2.571241	2.514925
	2.570281	2.514925
	2.585640	2.512685
	2.570921	2.512045
	2.569641	2.511085
	2.568361	2.514925
	2.564521	2.509165
	2.561642	2.507885
	2.558762	2.506286
	2.556842	2.502446
	2.553322	2.500206
	2.551402	2.497326
	2.553642	2.494446
	2.549482	2.493806
	2.548523	2.494126
	2.549802	2.500846
	2.551082	2.497326
	2.549162	2.502446
	2.549802	2.505966
	2.547243	2.507885
	2.547243	2.509805
	2.545643	2.510445
	2.545003	2.509165
	2.542763	2.506926
	2.542443	2.501806
	2.554922	2.533804
	2.538283	2.491567
	2.536683	2.485167
	2.533484	2.480367
	2.529004	2.475568
	2.528364	2.472368
	2.526124	2.471728
	2.523884	2.470768
	2.522284	2.472368
	2.521005	2.473968
	2.520365	2.476848
	2.521644	2.478768
	2.521964	2.481647
	2.545003	2.487087
	2.530284	2.483887
	2.533804	2.482287
	2.588200	2.481967
	2.541483	2.479088
	2.545003	2.477168
	2.546283	2.476528
	2.547243	2.476528
	2.545323	2.477808
	2.543083	2.481967
	2.540203	2.485487
	2.535403	2.512685
	2.530924	2.493487
	2.527084	2.503086
	2.522604	2.502126
	2.519405	2.504366
	2.517805	2.505646
	2.516525	2.504046
	2.517485	2.503086
	2.518125	2.501806
	2.520045	2.500206
	2.521324	2.498286
	2.522924	2.497966
	2.524524	2.497646
	2.526764	2.499566
	2.525484	2.503406
	2.525164	2.506926
	2.525804	2.509485
	2.524524	2.512045
	2.523884	2.513325
	2.524204	2.596839
	2.521964	2.512045
	2.521324	2.512045
	2.521005	2.505006
	2.521964	2.500526
	2.524204	2.499246
	2.526444	2.493487
	2.528684	2.492207
	2.532524	2.491247
	2.538603	2.493167
	2.542123	2.494446
	2.549162	2.497646
	2.552362	2.500846
	2.556842	2.503726
	2.562921	2.506606
	2.563881	2.508525
	2.564841	2.510125
	2.565801	2.508205
	2.564521	2.509485
	2.562282	2.510445
	2.565161	2.508205
	2.556202	2.508525
	2.551722	2.509485
	2.586600	2.509485
	2.542763	2.510125
	2.539243	2.511725
	2.546923	2.513645
	2.533484	2.515245
	2.532524	2.514605
	2.531564	2.513325
	2.529324	2.513645
	2.530284	2.512365
	2.523244	2.510125
	2.525804	2.510125
	2.525804	2.505006
	2.523244	2.502446
	2.522604	2.502126
	2.520045	2.499246
	2.524844	2.498606
	2.519725	2.505646
	2.521324	2.497326
	2.554602	2.498286
	2.529004	2.500206
	2.523244	2.500206
	2.542123	2.499246
	2.532844	2.501806
	2.567401	2.497966
	2.682913	2.496046
	2.535083	2.498606
	2.558442	2.494766
	2.545003	2.494766
	2.536043	2.495086
	2.543083	2.493487
	2.573481	2.495406
	2.535723	2.496366
	2.540203	2.497326
	2.537003	2.498926
	2.531884	2.500526
	2.535083	2.503086
	2.531564	2.502446
	2.525164	2.502766
	2.526764	2.502766
	2.519085	2.503086
	2.513645	2.503726
	2.513325	2.505006
	2.508525	2.509805
	2.502766	2.514285
	2.503406	2.521005
	2.497006	2.526764
	2.495086	2.534124
	2.495086	2.540203
	2.491567	2.543403
	2.489007	2.545323
	2.490927	2.543723
	2.487087	2.541803
	2.487087	2.537963
	2.488047	2.530924
	2.486127	2.527404
	2.486447	2.521005
	2.488367	2.516205
	2.488047	2.510765
	2.489327	2.599079
	2.493806	2.507565
	2.496686	2.506606
	2.500846	2.504366
	2.507246	2.501806
	2.514605	2.499886
	2.531564	2.495086
	2.536043	2.491887
	2.539243	2.487087
	2.547243	2.482287
	2.552042	2.478128
	2.557802	2.476208
	2.560362	2.473648
	2.563241	2.472688
	2.564841	2.472048
	2.563561	2.473008
	2.560362	2.474288
	2.557482	2.477808
	2.552362	2.480047
	2.546923	2.483247
	2.540203	2.488047
	2.533484	2.493806
	2.530604	2.498606
	2.521005	2.506286
	2.519405	2.511085
	2.515885	2.520045
	2.514285	2.529324
	2.514285	2.537643
	2.512045	2.545963
	2.513005	2.553322
	2.517805	2.558762
	2.515565	2.568681
	2.519085	2.565801
	2.519405	2.565481
	2.521964	2.564521
	2.525164	2.561002
	2.525484	2.556842
	2.528684	2.551722
	2.531884	2.545963
	2.534124	2.540843
	2.537963	2.534444
	2.540843	2.531884
	2.543083	2.528044
	2.545643	2.525164
	2.551402	2.522604
	2.552042	2.522604
	2.554602	2.523564
	2.556842	2.523564
	2.559402	2.525484
	2.562601	2.527724
	2.565801	2.528044
	2.568041	2.529964
	2.569001	2.530924
	2.569961	2.532844
	2.569321	2.533484
	2.568681	2.533804
	2.566441	2.536683
	2.561002	2.536043
	2.561002	2.538283
	2.546923	2.540843
	2.543403	2.543083
	2.536043	2.545323
	2.529964	2.547243
	2.525484	2.547563
	2.521644	2.546283
	2.520045	2.541803
	2.515565	2.535403
	2.513645	2.528364
	2.511725	2.518445
	2.523884	2.508205
	2.509165	2.497966
	2.506926	2.488367
	2.506606	2.482287
	2.504686	2.480367
	2.502446	2.479408
	2.502446	2.482607
	2.502126	2.486447
	2.503086	2.491247
	2.502126	2.496366
	2.502126	2.500526
	2.504686	2.502766
	2.503726	2.504046
	2.506286	2.501806
	2.507565	2.499566
	2.508525	2.495406
	2.509805	2.489967
	2.509805	2.486127
	2.509805	2.480367
	2.510445	2.477488
	2.512045	2.482287
	2.513325	2.474608
	2.513325	2.475248
	2.514285	2.478448
	2.516205	2.480687
	2.516845	2.486767
	2.517805	2.490927
	2.519405	2.496686
	2.518445	2.505646
	2.518125	2.507885
	2.519085	2.514925
	2.516845	2.521324
	2.514285	2.529324
	2.510765	2.535083
	2.508845	2.544043
	2.505006	2.550762
	2.503406	2.557162
	2.502126	2.563241
	2.502446	2.567081
	2.505006	2.570281
	2.507885	2.568681
	2.513965	2.601639
	2.521005	2.560362
	2.529644	2.552362
	2.535723	2.543083
	2.540843	2.532524
	2.550762	2.521005
	2.557802	2.509805
	2.563241	2.500526
	2.564841	2.490607
	2.566761	2.484207
	2.567401	2.481007
	2.565481	2.480367
	2.563881	2.480367
	2.561322	2.483887
	2.558122	2.488367
	2.554602	2.494126
	2.550442	2.500206
	2.546283	2.505646
	2.542763	2.510445
	2.539563	2.515885
	2.536683	2.518765
	2.532844	2.519725
	2.530604	2.521964
	2.528684	2.520685
	2.526444	2.520685
	2.524844	2.518125
	2.523564	2.516845
	2.522924	2.514925
	2.521644	2.514285
	2.522284	2.512685
	2.521964	2.512685
	2.524204	2.527084
	2.525484	2.512045
	2.527404	2.509805
	2.531564	2.508205
	2.533804	2.506926
	2.538923	2.650595
	2.541803	2.498606
	2.544683	2.494766
	2.550442	2.490927
	2.552682	2.486447
	2.553962	2.661154
	2.557162	2.478128
	2.558762	2.475568
	2.567081	2.475248
	2.560042	2.476528
	2.559402	2.479408
	2.560362	2.479728
	2.559722	2.483567
	2.559722	2.485807
	2.560042	2.488687
	2.558762	2.491887
	2.557802	2.492847
	2.555882	2.494126
	2.553322	2.494446
	2.550442	2.494446
	2.548523	2.493167
	2.543403	2.492207
	2.538603	2.489647
	2.533164	2.489327
	2.529964	2.488367
	2.525164	2.489327
	2.521964	2.491247
	2.519085	2.492527
	2.517485	2.496366
	2.516845	2.500206
	2.516845	2.502446
	2.516205	2.505646
	2.516845	2.508845
	2.514285	2.510765
	2.513645	2.512045
	2.512045	2.507885
	2.510765	2.511085
	2.508205	2.508525
	2.508205	2.507246
	2.505326	2.506606
	2.503726	2.520685
	2.505006	2.505646
	2.508845	2.506606
	2.523244	2.508845
	2.516845	2.512365
	2.521324	2.522284
	2.527404	2.518765
	2.533484	2.523244
	2.534124	2.527084
	2.534124	2.529324
	2.535083	2.533484
	2.531564	2.533484
	2.527724	2.533484
	2.521324	2.530604
	2.518445	2.527724
	2.512045	2.525804
	2.507565	2.521964
	2.502766	2.516525
	2.501806	2.513325
	2.500526	2.509805
	2.501486	2.506286
	2.502766	2.505006
	2.504366	2.508525
	2.506286	2.498606
	2.509805	2.495406
	2.513325	2.491887
	2.515885	2.486127
	2.519085	2.481647
	2.519405	2.474928
	2.521324	2.468528
	2.520365	2.463089
	2.521005	2.457649
	2.516845	2.452849
	2.515885	2.449970
	2.511085	2.457009
	2.506286	2.451570
	2.503406	2.453489
	2.500526	2.460529
	2.495726	2.462129
	2.492527	2.465968
	2.488687	2.471088
	2.487727	2.474928
	2.487407	2.476848
	2.489007	2.478768
	2.491247	2.478768
	2.495086	2.477488
	2.499886	2.479088
	2.502766	2.478448
	2.508525	2.478768
	2.514285	2.479408
	2.517805	2.481967
	2.522924	2.485807
	2.523884	2.489327
	2.526764	2.496366
	2.528364	2.499886
	2.529324	2.504686
	2.530924	2.509805
	2.531564	2.512685
	2.532844	2.516845
	2.535403	2.517485
	2.540843	2.524524
	2.548842	2.518765
	2.552682	2.517485
	2.561002	2.516525
	2.567401	2.516845
	2.571241	2.514925
	2.576041	2.514285
	2.579560	2.552682
	2.579880	2.514925
	2.581160	2.514285
	2.581160	2.514925
	2.577640	2.514925
	2.576360	2.514285
	2.571881	2.513645
	2.569641	2.516205
	2.566121	2.512365
	2.566441	2.509165
	2.566121	2.507246
	2.565801	2.505006
	2.567401	2.503086
	2.567401	2.503726
	2.568041	2.505326
	2.569321	2.503406
	2.570601	2.506286
	2.571241	2.504686
	2.571561	2.505966
	2.573481	2.505646
	2.569321	2.504686
	2.566441	2.503406
	2.564841	2.500846
	2.563561	2.504046
	2.560042	2.494126
	2.557802	2.492207
	2.557482	2.489007
	2.555882	2.486767
	2.555562	2.484847
	2.555882	2.484527
	2.558442	2.483887
	2.559082	2.481647
	2.560362	2.481967
	2.562282	2.481007
	2.563881	2.479088
	2.610278	2.477168
	2.565161	2.474608
	2.564201	2.473328
	2.562601	2.472048
	2.560682	2.480687
	2.555882	2.466288
	2.552362	2.465968
	2.548523	2.465329
	2.546283	2.465329
	2.583080	2.464689
	2.539243	2.465649
	2.536363	2.467248
	2.533804	2.469168
	2.531564	2.476528
	2.530284	2.469808
	2.529964	2.469488
	2.529644	2.468528
	2.530924	2.467568
	2.530284	2.466928
	2.530284	2.466288
	2.531884	2.467888
	2.532524	2.465968
	2.533484	2.472688
	2.534124	2.468208
	2.536363	2.468848
	2.537323	2.469488
	2.538603	2.469168
	2.538923	2.471088
	2.538923	2.470768
	2.540523	2.469808
	2.539243	2.470448
	2.539563	2.471088
	2.540203	2.472688
	2.540203	2.484207
	2.538923	2.474928
	2.539563	2.478448
	2.538283	2.480687
	2.537963	2.483567
	2.582760	2.486127
	2.538283	2.489007
	2.538603	2.490607
	2.537323	2.492527
	2.538923	2.491887
	2.538283	2.491247
	2.539243	2.530284
	2.538923	2.490927
	2.538603	2.490287
	2.539243	2.491887
	2.538603	2.493806
	2.540203	2.496366
	2.543083	2.494126
	2.545963	2.499566
	2.548842	2.503086
	2.552362	2.507246
	2.555882	2.507885
	2.557482	2.529004
	2.559402	2.510125
	2.559402	2.508205
	2.560042	2.506926
	2.555242	2.507565
	2.553002	2.506926
	2.545323	2.506926
	2.538283	2.506606
	2.533164	2.510765
	2.527404	2.514925
	2.523564	2.516525
	2.516525	2.528684
	2.511085	2.527084
	2.509485	2.697632
	2.508525	2.536043
	2.509485	2.538283
	2.512685	2.540203
	2.515245	2.540523
	2.521964	2.540523
	2.530924	2.539243
	2.537643	2.538283
	2.547563	2.537003
	2.557162	2.537643
	2.565161	2.537323
	2.571241	2.539563
	2.574441	2.536363
	2.574761	2.550442
	2.574121	2.534764
	2.571881	2.530604
	2.566761	2.526124
	2.561962	2.519725
	2.558762	2.512045
	2.551402	2.503406
	2.547243	2.497006
	2.545003	2.488687
	2.542763	2.481647
	2.542763	2.477808
	2.542123	2.476528
	2.541803	2.477168
	2.542763	2.482927
	2.541803	2.485807
	2.541803	2.510445
	2.540203	2.497966
	2.537323	2.508525
	2.534764	2.506286
	2.528044	2.507885
	2.521324	2.511405
	2.515565	2.511725
	2.512685	2.512365
	2.505966	2.513005
	2.500206	2.514285
	2.497006	2.515885
	2.493806	2.519405
	2.493167	2.523884
	2.492847	2.529004
	2.491887	2.534764
	2.496366	2.541483
	2.497326	2.545963
	2.498926	2.547883
	2.501166	2.546923
	2.507246	2.550122
	2.507885	2.541163
	2.509805	2.559082
	2.512365	2.525804
	2.514285	2.664034
	2.516845	2.509805
	2.519725	2.501806
	2.522604	2.493487
	2.525804	2.486447
	2.530604	2.481647
	2.532524	2.476208
	2.537643	2.471408
	2.540523	2.467568
	2.554282	2.462129
	2.545643	2.458609
	2.548842	2.452849
	2.554602	2.445490
	2.553322	2.440370
	2.554602	2.436211
	2.555242	2.431411
	2.555882	2.423412
	2.555882	2.419892
	2.557482	2.417652
	2.556842	2.422132
	2.556522	2.416052
	2.557162	2.423412
	2.554602	2.423092
	2.554602	2.431411
	2.554602	2.433971
	2.552042	2.447090
	2.550442	2.448050
	2.549482	2.456689
	2.547243	2.460209
	2.543083	2.472688
	2.538923	2.623397
	2.536363	2.480687
	2.529964	2.483567
	2.526444	2.491567
	2.522604	2.495406
	2.517805	2.515245
	2.514285	2.515565
	2.511085	2.537963
	2.508205	2.561642
	2.506286	2.569961
	2.507246	2.708831
	2.506606	2.591719
	2.509485	2.647715
	2.510765	2.634276
	2.512045	2.754908
	2.515245	2.654755
	2.517165	2.653475
	2.520045	2.652515
	2.524204	2.668514
	2.526124	2.652195
	2.532524	2.645795
	2.537323	2.651875
	2.544683	2.668834
	2.548523	2.627557
	2.560682	2.614438
	2.566121	2.605158
	2.577320	2.600039
	2.578920	2.580520
	2.594919	2.563241
	2.588520	2.554602
	2.592679	2.545963
	2.589480	2.537643
	2.587880	2.521005
	2.580840	2.511405
	2.580200	2.506286
	2.568361	2.502126
	2.570601	2.491247
	2.557162	2.492847
	2.554282	2.489007
	2.545323	2.488367
	2.551722	2.486767
	2.538603	2.490927
	2.540843	2.490607
	2.531884	2.493167
	2.545643	2.495406
	2.529964	2.501806
	2.530604	2.505006
	2.529324	2.513005
	2.529004	2.515245
	2.527084	2.519725
	2.530604	2.526444
	2.527084	2.530284
	2.528364	2.532204
	2.528684	2.534124
	2.529964	2.534444
	2.530924	2.535403
	2.532844	2.531244
	2.534124	2.531884
	2.536043	2.529324
	2.537003	2.529644
	2.537323	2.530604
	2.537323	2.530604
	2.537963	2.531244
	2.537643	2.532524
	2.536683	2.533484
	2.536043	2.533804
	2.532524	2.531564
	2.531244	2.528044
	2.529644	2.522604
	2.528364	2.518765
	2.526124	2.510125
	2.524844	2.503726
	2.525804	2.497646
	2.524524	2.491887
	2.524204	2.488047
	2.524524	2.484527
	2.525164	2.483887
	2.528364	2.483567
	2.529964	2.484527
	2.529644	2.487087
	2.530284	2.489007
	2.533164	2.489967
	2.533804	2.492527
	2.535083	2.494126
	2.535723	2.494126
	2.532844	2.494446
	2.533484	2.497966
	2.532844	2.492847
	2.531564	2.531884
	2.531884	2.491887
	2.529004	2.510125
	2.564201	2.495406
	2.527084	2.517165
	2.535403	2.497646
	2.525164	2.503086
	2.526124	2.498286
	2.526764	2.502126
	2.527724	2.496046
	2.530604	2.497006
	2.533484	2.487407
	2.538603	2.484847
	2.547563	2.473648
	2.554922	2.492847
	2.564201	2.526124
	2.569001	2.472368
	2.575401	2.529324
	2.582120	2.444210
	2.586600	2.459569
	2.587240	2.441970
	2.589800	2.452209
	2.589800	2.444850
	2.585960	2.491567
	2.608038	2.449970
	2.583400	2.456369
	2.586600	2.455729
	2.577320	2.458289
	2.574121	2.460529
	2.571561	2.468208
	2.569321	2.465329
	2.565481	2.471408
	2.561642	2.596519
	2.557162	2.480367
	2.550122	2.530604
	2.545963	2.493167
	2.539883	2.514285
	2.534124	2.513325
	2.528684	2.523884
	2.521964	2.547883
	2.519725	2.530924
	2.553002	2.544043
	2.511085	2.536043
	2.512045	2.534764
	2.505966	2.536043
	2.506926	2.535083
	2.505966	2.537963
	2.508845	2.534124
	2.506926	2.536683
	2.507246	2.561962
	2.508845	2.538923
	2.535083	2.557482
	2.510125	2.541803
	2.511085	2.545323
	2.530924	2.543723
	2.530604	2.552362
	2.517485	2.547563
	2.512365	2.542123
	2.512365	2.585000
	2.520045	2.540843
	2.513325	2.539563
	2.512365	2.528044
	2.515565	2.563561
	2.514285	2.516845
	2.514285	2.516525
	2.527404	2.504366
	2.539243	2.502446
	2.521005	2.493487
	2.526764	2.490287
	2.519725	2.485487
	2.523564	2.482607
	2.517485	2.480687
	2.536043	2.477808
	2.521005	2.493806
	2.530924	2.472048
	2.525484	2.486767
	2.533484	2.468848
	2.532204	2.479408
	2.538603	2.463729
	2.542123	2.462449
	2.545643	2.458929
	2.538603	2.458289
	2.536683	2.455729
	2.541803	2.454769
	2.535403	2.455089
	2.535403	2.455089
	2.534764	2.543083
	2.537003	2.458609
	2.537963	2.466608
	2.541483	2.466288
	2.545323	2.469808
	2.549482	2.471728
	2.553002	2.472368
	2.553642	2.473648
	2.554602	2.474288
	2.554602	2.473008
	2.554602	2.468208
	2.552042	2.552362
	2.550122	2.463409
	2.545643	2.461809
	2.542123	2.458289
	2.538923	2.458609
	2.537963	2.459249
	2.534764	2.464369
	2.534444	2.464689
	2.532844	2.468528
	2.533484	2.481327
	2.534444	2.473648
	2.533804	2.479728
	2.535723	2.477488
	2.537963	2.478448
	2.537643	2.477808
	2.538283	2.475888
	2.540203	2.472048
	2.543083	2.471088
	2.545003	2.468848
	2.547883	2.468208
	2.550762	2.472688
	2.556522	2.467568
	2.559082	2.470448
	2.563241	2.473648
	2.564841	2.478448
	2.564841	2.483247
	2.567081	2.487727
	2.565801	2.744348
	2.565161	2.494766
	2.561962	2.499566
	2.559722	2.498926
	2.555562	2.509485
	2.550442	2.497966
	2.545643	2.498926
	2.543083	2.499246
	2.537643	2.500846
	2.535723	2.779546
	2.532524	2.504046
	2.529004	2.508525
	2.529004	2.508205
	2.526764	2.514285
	2.525484	2.513325
	2.526444	2.514605
	2.524844	2.517485
	2.524524	2.517485
	2.521644	2.542123
	2.520685	2.519405
	2.517805	2.520365
	2.518125	2.519405
	2.516525	2.520365
	2.515565	2.521324
	2.513965	2.522604
	2.513965	2.524524
	2.513965	2.527084
	2.514925	2.532524
	2.515885	2.533164
	2.516205	2.537003
	2.516845	2.537323
	2.519085	2.538283
	2.518445	2.539243
	2.517165	2.539243
	2.517485	2.566761
	2.517485	2.536683
	2.516845	2.534124
	2.517165	2.531244
	2.518445	2.529324
	2.519725	2.523884
	2.524524	2.521324
	2.528044	2.543403
	2.534764	2.514925
	2.543723	2.513005
	2.552362	2.509165
	2.558442	2.507246
	2.566761	2.504046
	2.573801	2.502126
	2.578280	2.505646
	2.579560	2.495726
	2.578600	2.494446
	2.576680	2.492527
	2.571241	2.494126
	2.564521	2.489967
	2.554922	2.490287
	2.548203	2.508845
	2.538603	2.490607
	2.528684	2.491887
	2.520365	2.492527
	2.512685	2.494446
	2.508205	2.493167
	2.503086	2.492527
	2.497646	2.496366
	2.494126	2.489007
	2.492527	2.487727
	2.491567	2.486127
	2.491247	2.486447
	2.492527	2.487087
	2.495726	2.481007
	2.497006	2.481647
	2.500846	2.479408
	2.505326	2.479088
	2.509165	2.478768
	2.513325	2.478768
	2.516525	2.499566
	2.521005	2.478448
	2.523244	2.476848
	2.527084	2.475568
	2.528684	2.474928
	2.531564	2.472368
	2.531244	2.471088
	2.532524	2.471088
	2.533484	2.466608
	2.533804	2.465968
	2.534764	2.464369
	2.535403	2.464369
	2.535083	2.471408
	2.533484	2.464689
	2.530284	2.464049
	2.530924	2.465009
	2.529004	2.464689
	2.528364	2.577000
	2.529644	2.460529
	2.525804	2.459889
	2.526124	2.457649
	2.530284	2.456689
	2.534444	2.456689
	2.543083	2.457649
	2.548523	2.465009
	2.600039	2.458929
	2.571241	2.461169
	2.583400	2.463409
	2.596839	2.466288
	2.601959	2.512365
	2.606118	2.474608
	2.611558	2.479088
	2.629797	2.483247
	2.614758	2.487407
	2.624357	2.490607
	2.656035	2.494766
	2.607718	2.497966
	2.606758	2.502126
	2.595559	2.504686
	2.592039	2.509165
	2.576680	2.513005
	2.577960	2.517485
	2.579240	2.520045
	2.565481	2.522924
	2.567081	2.525164
	2.557162	2.527724
	2.546283	2.531244
	2.550122	2.529644
	2.537003	2.525164
	2.533804	2.523564
	2.529644	2.519405
	2.529324	2.519725
	2.528044	2.512685
	2.526124	2.507246
	2.524844	2.502126
	2.529644	2.497646
	2.527724	2.501166
	2.531884	2.490287
	2.532204	2.487407
	2.534764	2.486127
	2.540843	2.484847
	2.543083	2.487727
	2.546923	2.480367
	2.555882	2.479408
	2.562282	2.478768
	2.557162	2.479088
	2.555562	2.496686
	2.558442	2.477168
	2.559082	2.477488
	2.560042	2.477488
	2.560042	2.478128
	2.562601	2.480687
	2.565161	2.480367
	2.567081	2.484847
	2.570281	2.485487
	2.573801	2.488687
	2.573801	2.492527
	2.575721	2.495086
	2.575401	2.493806
	2.578920	2.495406
	2.580200	2.494446
	2.579880	2.494446
	2.580840	2.492207
	2.578920	2.490287
	2.578920	2.488687
	2.577000	2.486127
	2.572841	2.485807
	2.570921	2.481327
	2.611238	2.480687
	2.558442	2.479088
	2.553322	2.480367
	2.544363	2.481967
	2.539243	2.482927
	2.545643	2.486767
	2.520685	2.509165
	2.513005	2.493167
	2.505966	2.496046
	2.499566	2.498606
	2.493487	2.502126
	2.485487	2.509805
	2.480367	2.506286
	2.477168	2.508525
	2.473968	2.509165
	2.472048	2.509805
	2.468208	2.511405
	2.469168	2.511405
	2.512685	2.512365
	2.469168	2.512365
	2.472368	2.511405
	2.475568	2.510125
	2.480687	2.506286
	2.484527	2.503726
	2.490927	2.500846
	2.499246	2.492847
	2.507246	2.487727
	2.516525	2.480047
	2.524844	2.474288
	2.531244	2.470448
	2.541163	2.464689
	2.563241	2.463089
	2.555562	2.471088
	2.559402	2.464689
	2.561962	2.470768
	2.562282	2.474928
	2.563881	2.481647
	2.559082	2.489327
	2.555242	2.492847
	2.558122	2.499566
	2.541483	2.587880
	2.531884	2.510125
	2.527724	2.514285
	2.519405	2.518125
	2.513965	2.521005
	2.508205	2.525164
	2.503086	2.527404
	2.501486	2.530604
	2.498286	2.555882
	2.502766	2.531564
	2.498926	2.530924
	2.500206	2.526444
	2.506286	2.522284
	2.504686	2.520045
	2.507565	2.510765
	2.513645	2.505006
	2.514605	2.629797
	2.518125	2.494446
	2.519405	2.490287
	2.523564	2.486447
	2.526764	2.486127
	2.528364	2.486127
	2.529324	2.482287
	2.570921	2.481007
	2.529324	2.488687
	2.530284	2.479408
	2.527724	2.479728
	2.526764	2.596519
	2.525164	2.478768
	2.522924	2.478448
	2.521005	2.477168
	2.534124	2.478448
	2.519085	2.481007
	2.516845	2.480047
	2.518765	2.482287
	2.517485	2.543723
	2.518445	2.485807
	2.516525	2.489647
	2.515565	2.492207
	2.514605	2.493167
	2.511085	2.494766
	2.512045	2.496046
	2.515565	2.497646
	2.509485	2.508525
	2.509485	2.497006
	2.510125	2.498286
	2.513005	2.580520
	2.515565	2.496686
	2.520365	2.496686
	2.524844	2.496046
	2.528684	2.497326
	2.533484	2.495726
	2.542443	2.492847
	2.545963	2.489967
	2.544363	2.497646
	2.547243	2.483247
	2.552682	2.480367
	2.552042	2.503726
	2.552042	2.474608
	2.553002	2.473008
	2.554282	2.515245
	2.555562	2.473328
	2.553642	2.474288
	2.557162	2.476528
	2.556522	2.478768
	2.554282	2.482927
	2.552042	2.484207
	2.553322	2.486767
	2.546603	2.505006
	2.543403	2.491247
	2.559722	2.492847
	2.532524	2.510125
	2.528364	2.495406
	2.522284	2.496046
	2.519405	2.727390
	2.514925	2.499566
	2.510765	2.501166
	2.507246	2.502126
	2.505646	2.503726
	2.500846	2.505006
	2.498286	2.504366
	2.497006	2.502126
	2.495406	2.500526
	2.493806	2.496686
	2.497326	2.492527
	2.494446	2.491887
	2.495726	2.488047
	2.521005	2.485487
	2.496366	2.496686
	2.498606	2.485807
	2.502126	2.487087
	2.503726	2.521964
	2.506286	2.489327
	2.507565	2.489007
	2.511405	2.615078
	2.512685	2.487087
	2.514925	2.485807
	2.518445	2.482287
	2.520685	2.480367
	2.523244	2.478128
	2.529644	2.476528
	2.534764	2.477488
	2.537323	2.476528
	2.539883	2.479088
	2.542443	2.480687
	2.544043	2.485167
	2.546283	2.487727
	2.549162	2.489327
	2.546603	2.491247
	2.546283	2.491247
	2.550762	2.490607
	2.543083	2.493806
	2.540843	2.493167
	2.558762	2.494126
	2.533164	2.501166
	2.529004	2.500526
	2.526444	2.506286
	2.523244	2.513645
	2.518765	2.515885
	2.517165	2.518445
	2.515245	2.525804
	2.510765	2.524204
	2.509485	2.526124
	2.508205	2.581480
	2.506286	2.525804
	2.545963	2.524204
	2.502446	2.543083
	2.501166	2.523564
	2.498606	2.521964
	2.497646	2.525164
	2.496366	2.519405
	2.496046	2.516205
	2.496366	2.525484
	2.496366	2.509165
	2.498606	2.505966
	2.498926	2.513645
	2.499886	2.501806
	2.501486	2.501806
	2.502126	2.515885
	2.503406	2.498606
	2.504686	2.497966
	2.506286	2.506286
	2.507246	2.496366
	2.508525	2.492847
	2.509485	2.504686
	2.508845	2.490927
	2.508845	2.489007
	2.509165	2.497966
	2.507885	2.486767
	2.506926	2.485807
	2.507246	2.490927
	2.506286	2.483567
	2.504366	2.482607
	2.505326	2.483887
	2.506286	2.478768
	2.510765	2.476848
	2.507246	2.477808
	2.506286	2.473968
	2.519405	2.473968
	2.508205	2.475248
	2.508205	2.474608
	2.518125	2.477808
	2.507885	2.479088
	2.507565	2.478768
	2.507885	2.478128
	2.506286	2.477488
	2.507246	2.473648
	2.508845	2.473328
	2.509165	2.470448
	2.509805	2.611878
	2.513325	2.466928
	2.513005	2.465649
	2.518125	2.491567
	2.519405	2.465968
	2.520685	2.467888
	2.526124	2.485807
	2.528364	2.470128
	2.532844	2.469808
	2.539883	2.503726
	2.544683	2.535723
	2.547563	2.465649
	2.553962	2.466928
	2.560042	2.595559
	2.578600	2.459249
	2.568041	2.459569
	2.571561	2.513005
	2.576041	2.461809
	2.574441	2.530284
	2.574121	2.508205
	2.575401	2.497646
	2.574441	2.477168
	2.572841	2.569641
	2.570921	2.513645
	2.568681	2.486127
	2.566441	2.493167
	2.562921	2.639396
	2.561002	2.505006
	2.557162	2.497966
	2.554282	2.638116
	2.552362	2.540523
	2.552682	2.500206
	2.550122	2.512685
	2.549162	2.508525
	2.546283	2.504046
	2.546283	2.500846
	2.545323	2.524524
	2.542123	2.507885
	2.538923	2.510445
	2.538283	2.518765
	2.534124	2.556202
	2.531244	2.517165
	2.528364	2.521324
	2.524524	2.518765
	2.521644	2.515565
	2.521005	2.515245
	2.517805	2.511725
	2.516525	2.507246
	2.515245	2.504366
	2.516205	2.506606
	2.514925	2.499566
	2.513965	2.498606
	2.513645	2.499886
	2.512685	2.499246
	2.513965	2.497966
	2.515885	2.499566
	2.516205	2.497326
	2.519085	2.495086
	2.521005	2.495726
	2.524204	2.492207
	2.528684	2.487407
	2.533164	2.484847
	2.536363	2.482607
	2.539563	2.480367
	2.541803	2.481327
	2.547563	2.483567
	2.545963	2.485807
	2.545643	2.487727
	2.545963	2.494126
	2.548203	2.497326
	2.545003	2.502766
	2.544683	2.503726
	2.542123	2.509485
	2.542123	2.511405
	2.540203	2.512685
	2.540203	2.511725
	2.542763	2.511405
	2.535083	2.511085
	2.534444	2.511725
	2.535403	2.514605
	2.530604	2.517805
	2.527724	2.521964
	2.526124	2.523884
	2.523884	2.527724
	2.524204	2.529324
	2.523564	2.529644
	2.542763	2.526444
	2.526124	2.525164
	2.526124	2.522604
	2.528684	2.519725
	2.527404	2.517165
	2.529004	2.515565
	2.528364	2.513965
	2.527724	2.512365
	2.525484	2.511405
	2.524844	2.511085
	2.528044	2.508845
	2.522604	2.506606
	2.522284	2.505326
	2.522284	2.503726
	2.521644	2.501806
	2.523564	2.501166
	2.521324	2.502126
	2.522924	2.502766
	2.518125	2.504046
	2.515885	2.505646
	2.515245	2.505966
	2.509805	2.505646
	2.506926	2.505326
	2.503086	2.503086
	2.504366	2.501486
	2.499566	2.498926
	2.496686	2.497006
	2.496366	2.498286
	2.495726	2.499566
	2.494446	2.504046
	2.492847	2.509485
	2.500206	2.515885
	2.494126	2.521005
	2.493487	2.523564
	2.494766	2.526444
	2.495726	2.526444
	2.497006	2.523884
	2.498286	2.519085
	2.506286	2.513325
	2.505646	2.504046
	2.506606	2.496366
	2.508525	2.489647
	2.513325	2.484527
	2.514285	2.481327
	2.516845	2.480687
	2.519725	2.481327
	2.521324	2.483887
	2.523564	2.484847
	2.526444	2.488367
	2.531884	2.488367
	2.530604	2.486447
	2.533804	2.483567
	2.536683	2.479088
	2.538283	2.473008
	2.538603	2.469488
	2.537963	2.465329
	2.538923	2.463409
	2.538283	2.462129
	2.536683	2.463409
	2.536363	2.468208
	2.541163	2.474288
	2.531244	2.480367
	2.531244	2.484527
	2.529004	2.489967
	2.571561	2.490927
	2.525164	2.490287
	2.523564	2.488047
	2.527404	2.485167
	2.563881	2.483247
	2.523244	2.480687
	2.523564	2.480047
	2.532524	2.480687
	2.528364	2.483567
	2.527724	2.486767
	2.528044	2.490927
	2.530284	2.493487
	2.530284	2.494446
	2.524524	2.493167
	2.528684	2.490607
	2.545323	2.485487
	2.522284	2.481007
	2.526764	2.475888
	2.521644	2.473648
	2.531564	2.471408
	2.522604	2.473648
	2.521644	2.476528
	2.521644	2.480047
	2.525804	2.484207
	2.523884	2.486127
	2.526124	2.488687
	2.529324	2.489007
	2.530924	2.486767
	2.534124	2.485167
	2.525164	2.482607
	2.526764	2.479728
	2.523244	2.476208
	2.523564	2.473648
	2.523564	2.473008
	2.524844	2.472048
	2.524844	2.471408
	2.526444	2.470448
	2.527404	2.469168
	2.528044	2.467568
	2.529964	2.467888
	2.529964	2.467568
	2.530924	2.468848
	2.534444	2.471408
	2.528684	2.473328
	2.525164	2.477168
	2.522604	2.479728
	2.521324	2.482607
	2.517805	2.483887
	2.514925	2.483887
	2.514925	2.483567
	2.513965	2.481647
	2.511725	2.481327
	2.509485	2.481007
	2.509485	2.481327
	2.509485	2.483567
	2.508525	2.485807
	2.508525	2.488687
	2.509485	2.491567
	2.509805	2.494126
	2.511725	2.494766
	2.513965	2.494766
	2.518125	2.492847
	2.519405	2.491247
	2.521324	2.490287
	2.525484	2.489007
	2.527404	2.490287
	2.530284	2.491887
	2.530924	2.496046
	2.530924	2.500846
	2.529324	2.503726
	2.528364	2.505966
	2.526764	2.507565
	2.526764	2.507565
	2.525804	2.505966
	2.526444	2.500846
	2.526124	2.497326
	2.527084	2.494766
	2.528044	2.494446
	2.529324	2.495406
	2.530924	2.499886
	2.530284	2.505006
	2.530284	2.509485
	2.527724	2.515565
	2.524204	2.521324
	2.520045	2.524204
	2.514925	2.524524
	2.512365	2.522604
	2.509805	2.516845
	2.506926	2.509805
	2.505966	2.502766
	2.505646	2.497326
	2.506926	2.491887
	2.508525	2.490607
	2.511085	2.492207
	2.513005	2.496366
	2.515885	2.502126
	2.516525	2.509165
	2.516845	2.514925
	2.517165	2.519085
	2.517485	2.519405
	2.517805	2.516205
	2.516525	2.509485
	2.517485	2.499246
	2.521005	2.488687
	2.523884	2.478128
	2.527724	2.468848
	2.532844	2.461169
	2.537963	2.458609
	2.542123	2.459889
	2.544363	2.465649
	2.545963	2.474608
	2.546923	2.486447
	2.545003	2.497326
	2.539563	2.508205
	2.534124	2.515245
	2.530924	2.520365
	2.523884	2.520045
	2.518765	2.517805
	2.514285	2.511085
	2.513645	2.503726
	2.512685	2.495406
	2.513325	2.487407
	2.515565	2.483567
	2.518125	2.482287
	2.521005	2.483887
	2.521644	2.490287
	2.520685	2.497966
	2.520045	2.507246
	2.516845	2.517165
	2.514925	2.525164
	2.510445	2.530284
	2.505966	2.530284
	2.501486	2.528364
	2.500846	2.522604
	2.499246	2.513965
	2.500526	2.502446
	2.502126	2.492527
	2.506286	2.483567
	2.509805	2.475888
	2.514605	2.473648
	2.517805	2.472688
	2.520045	2.475568
	2.521644	2.481967
	2.521964	2.490607
	2.522284	2.500206
	2.520045	2.510445
	2.520365	2.516845
	2.519405	2.521005
	2.519725	2.521324
	2.520685	2.517805
	2.522604	2.509485
	2.524524	2.499246
	2.527084	2.486447
	2.529644	2.473968
	2.531564	2.463409
	2.533484	2.456369
	2.532524	2.452209
	2.531244	2.453489
	2.529004	2.461169
	2.526764	2.470768
	2.523564	2.482927
	2.521324	2.494446
	2.516525	2.506286
	2.518445	2.514925
	2.519085	2.519725
	2.519085	2.520365
	2.521324	2.515565
	2.521644	2.507246
	2.522924	2.495726
	2.523884	2.481967
	2.523564	2.470768
	2.521964	2.460849
	2.522604	2.454129
	2.519725	2.451890
	2.517485	2.455409
	2.514605	2.463089
	2.512045	2.473008
	2.512045	2.484207
	2.512365	2.494766
	2.513965	2.503086
	2.515245	2.510445
	2.519725	2.711391
	2.521324	2.508525
	2.523884	2.504046
	2.526124	2.617957
	2.526444	2.487407
	2.525164	2.478768
	2.522924	2.470768
	2.520365	2.466288
	2.516525	2.462129
	2.511405	2.463409
	2.509165	2.468848
	2.506606	2.473968
	2.505006	2.477168
	2.508205	2.489647
	2.511085	2.497966
	2.513325	2.499246
	2.519405	2.502126
	2.521964	2.650275
	2.526764	2.688032
	2.529004	2.550762
	2.528044	2.498926
	2.527724	2.495726
	2.525164	2.515565
	2.523244	2.513325
	2.518445	2.477488
	2.516845	2.474928
	2.513965	2.473008
	2.512365	2.567721
	2.511405	2.488367
	2.512685	2.480047
	2.513645	2.486127
	2.514925	2.545323
	2.518765	2.508205
	2.520365	2.520685
	2.521644	2.502446
	2.523884	2.660194
	2.524844	2.500846
	2.524844	2.513645
	2.525804	2.523564
	2.526124	2.646115
	2.527404	2.483887
	2.529644	2.505966
	2.530604	2.487727
	2.532844	2.484207
	2.534444	2.502766
	2.536363	2.487087
	2.538603	2.493487
	2.538923	2.503086
	2.539563	2.510125
	2.539883	2.516845
	2.537323	2.513005
	2.535403	2.522284
	2.532524	2.521324
	2.531564	2.526764
	2.528684	2.545643
	2.527404	2.518125
	2.524524	2.512365
	2.524204	2.507885
	2.523244	2.520365
	2.521324	2.639076
	2.519725	2.642276
	2.518125	2.505966
	2.516845	2.502766
	2.515885	2.507565
	2.512685	2.590759
	2.512365	2.514925
	2.510125	2.520365
	2.508525	2.511725
	2.508205	2.513005
	2.509805	2.519085
	2.509485	2.519405
	2.512045	2.506926
	2.513325	2.500526
	2.513005	2.495086
	2.515885	2.520365
	2.517805	2.488367
	2.519405	2.484847
	2.521005	2.484207
	2.521324	2.478128
	2.521644	2.504686
	2.522604	2.515245
	2.523244	2.481007
	2.523564	2.480687
	2.524844	2.480047
	2.525164	2.483247
	2.525164	2.508205
	2.525804	2.646435
	2.526764	2.485167
	2.527084	2.486127
	2.526444	2.497966
	2.525164	2.537323
	2.523244	2.503726
	2.523244	2.495086
	2.520365	2.496366
	2.518125	2.497646
	2.517485	2.506926
	2.514605	2.701471
	2.513965	2.495406
	2.512685	2.496046
	2.511085	2.494766
	2.510765	2.500206
	2.510125	2.502446
	2.511085	2.500206
	2.510445	2.500206
	2.509165	2.504046
	2.506606	2.522604
	2.504366	2.511085
	2.502126	2.527084
	2.497646	2.514605
	2.494446	2.515565
	2.490607	2.526764
	2.487727	2.520685
	2.486127	2.514925
	2.483887	2.514285
	2.485807	2.504686
	2.487087	2.499886
	2.489647	2.501806
	2.493487	2.497326
	2.499886	2.501166
	2.503726	2.491887
	2.510765	2.494446
	2.513325	2.511405
	2.517485	2.499566
	2.520045	2.503406
	2.519725	2.503086
	2.520365	2.493806
	2.519725	2.491887
	2.518765	2.494766
	2.516525	2.487727
	2.514925	2.485167
	2.514285	2.508205
	2.513965	2.481967
	2.514605	2.478768
	2.514925	2.480047
	2.516205	2.482607
	2.515245	2.484207
	2.516845	2.493806
	2.516205	2.484527
	2.517485	2.489647
	2.517485	2.489327
	2.516845	2.491887
	2.517805	2.495726
	2.518125	2.584360
	2.520685	2.490607
	2.520045	2.492847
	2.522604	2.489327
	2.526124	2.488367
	2.527084	2.493167
	2.529644	2.519405
	2.531244	2.489327
	2.532524	2.491887
	2.532524	2.495086
	2.531884	2.497006
	2.531884	2.501166
	2.532524	2.614438
	2.532524	2.501166
	2.531564	2.504046
	2.534444	2.502766
	2.535083	2.503406
	2.536683	2.505006
	2.537963	2.506926
	2.540203	2.502446
	2.543723	2.498926
	2.544043	2.497326
	2.545003	2.495406
	2.543723	2.494766
	2.544683	2.502126
	2.541483	2.538283
	2.538603	2.486127
	2.537323	2.484847
	2.534764	2.485487
	2.532844	2.488047
	2.529324	2.490287
	2.528044	2.527084
	2.525804	2.492847
	2.526124	2.495726
	2.524204	2.496046
	2.523564	2.496686
	2.522924	2.496366
	2.522284	2.499246
	2.522604	2.634596
	2.521644	2.487087
	2.520685	2.484207
	2.520685	2.483247
	2.520045	2.481327
	2.518125	2.482927
	2.516205	2.489327
	2.516205	2.480047
	2.515245	2.482287
	2.514605	2.482927
	2.514605	2.485167
	2.515245	2.488047
	2.517805	2.490927
	2.517485	2.640676
	2.519085	2.486767
	2.519405	2.487407
	2.520685	2.487727
	2.521005	2.492207
	2.521324	2.491887
	2.521005	2.496046
	2.520365	2.520685
	2.521644	2.498286
	2.520685	2.498926
	2.520365	2.498286
	2.521964	2.497646
	2.522284	2.495086
	2.523244	2.496046
	2.523884	2.600039
	2.524204	2.481647
	2.526444	2.479728
	2.527084	2.478128
	2.527724	2.481967
	2.529004	2.489007
	2.529964	2.498926
	2.531564	2.505326
	2.532844	2.571881
	2.533804	2.502126
	2.534444	2.505326
	2.539883	2.506606
	2.531564	2.506926
	2.564201	2.512365
	2.527404	2.689632
	2.524844	2.503086
	2.522924	2.496366
	2.521644	2.495406
	2.519405	2.494766
	2.522284	2.494126
	2.533484	2.497006
	2.517485	2.555242
	2.519725	2.690912
	2.521005	2.497006
	2.521324	2.496366
	2.561322	2.496686
	2.523884	2.499886
	2.537963	2.499566
	2.526124	2.516845
	2.526124	2.522284
	2.527084	2.648035
	2.532844	2.504366
	2.524844	2.575401
	2.553322	2.509165
	2.534124	2.513965
	2.531564	2.512365
	2.518445	2.529324
	2.536683	2.520685
	2.544043	2.604198
	2.556202	2.577000
	2.522924	2.510445
	2.527724	2.503086
	2.524844	2.502126
	2.535083	2.506606
	2.523884	2.513005
	2.529644	2.511725
	2.535403	2.556202
	2.536683	2.499566
	2.542443	2.615718
	2.545643	2.526764
	2.543403	2.514285

